# z (nm)   (kJ/mol)
  0.451000, 25.691900
  0.457000, 25.387600
  0.459000, 25.287800
  0.461000, 25.169600
  0.463000, 25.060600
  0.465000, 24.953100
  0.467000, 24.834300
  0.469000, 24.737100
  0.471000, 24.656200
  0.473000, 24.545700
  0.475000, 24.402200
  0.477000, 24.257500
  0.479000, 24.110100
  0.481000, 23.955400
  0.483000, 23.818000
  0.485000, 23.669100
  0.487000, 23.504600
  0.489000, 23.343700
  0.491000, 23.171600
  0.493000, 22.995600
  0.495000, 22.809800
  0.497000, 22.615800
  0.499000, 22.431900
  0.501000, 22.234000
  0.503000, 22.039700
  0.505000, 21.848800
  0.507000, 21.641300
  0.509000, 21.429900
  0.511000, 21.218500
  0.513000, 21.007600
  0.515000, 20.793300
  0.517000, 20.576100
  0.519000, 20.359700
  0.521000, 20.147600
  0.523000, 19.937700
  0.525000, 19.732800
  0.527000, 19.530900
  0.529000, 19.329100
  0.531000, 19.132800
  0.533000, 18.938300
  0.535000, 18.747500
  0.537000, 18.559700
  0.539000, 18.374100
  0.541000, 18.191600
  0.543000, 18.012400
  0.545000, 17.837200
  0.547000, 17.662000
  0.549000, 17.487100
  0.551000, 17.313600
  0.553000, 17.142500
  0.555000, 16.974300
  0.557000, 16.805500
  0.559000, 16.635700
  0.561000, 16.465400
  0.563000, 16.294000
  0.565000, 16.121800
  0.567000, 15.947700
  0.569000, 15.771500
  0.571000, 15.591600
  0.573000, 15.407300
  0.575000, 15.219700
  0.577000, 15.027300
  0.579000, 14.829700
  0.581000, 14.625300
  0.583000, 14.414600
  0.585000, 14.197400
  0.587000, 13.973000
  0.589000, 13.741900
  0.591000, 13.502100
  0.593000, 13.255500
  0.595000, 13.000300
  0.597000, 12.737200
  0.599000, 12.466800
  0.601000, 12.185000
  0.603000, 11.893300
  0.605000, 11.590600
  0.607000, 11.277400
  0.609000, 10.961000
  0.611000, 10.636600
  0.613000, 10.300300
  0.615000,  9.955400
  0.617000,  9.598600
  0.619000,  9.232500
  0.621000,  8.861300
  0.623000,  8.479700
  0.625000,  8.089200
  0.627000,  7.696900
  0.629000,  7.295800
  0.631000,  6.889700
  0.633000,  6.487600
  0.635000,  6.084900
  0.637000,  5.677500
  0.639000,  5.267000
  0.641000,  4.855800
  0.643000,  4.445200
  0.645000,  4.037100
  0.647000,  3.632400
  0.649000,  3.233500
  0.651000,  2.841400
  0.653000,  2.452200
  0.655000,  2.068600
  0.657000,  1.693900
  0.659000,  1.331000
  0.661000,  0.977200
  0.663000,  0.627900
  0.665000,  0.288200
  0.667000, -0.039600
  0.669000, -0.357400
  0.671000, -0.665500
  0.673000, -0.961300
  0.675000, -1.244100
  0.677000, -1.515300
  0.679000, -1.771700
  0.681000, -2.013400
  0.683000, -2.242000
  0.685000, -2.457300
  0.687000, -2.658700
  0.689000, -2.845200
  0.691000, -3.018900
  0.693000, -3.178600
  0.695000, -3.323400
  0.697000, -3.454700
  0.699000, -3.572500
  0.701000, -3.676200
  0.703000, -3.766600
  0.705000, -3.844000
  0.707000, -3.908000
  0.709000, -3.959400
  0.711000, -3.998200
  0.713000, -4.024200
  0.715000, -4.038500
  0.717000, -4.041200
  0.719000, -4.032900
  0.721000, -4.014100
  0.723000, -3.986000
  0.725000, -3.947800
  0.727000, -3.900600
  0.729000, -3.845200
  0.731000, -3.781200
  0.733000, -3.710200
  0.735000, -3.632300
  0.737000, -3.549200
  0.739000, -3.461700
  0.741000, -3.368200
  0.743000, -3.270000
  0.745000, -3.167800
  0.747000, -3.062200
  0.749000, -2.953900
  0.751000, -2.843000
  0.753000, -2.730900
  0.755000, -2.618000
  0.757000, -2.504500
  0.759000, -2.391300
  0.761000, -2.277500
  0.763000, -2.163500
  0.765000, -2.050500
  0.767000, -1.938600
  0.769000, -1.827800
  0.771000, -1.719000
  0.773000, -1.612100
  0.775000, -1.507100
  0.777000, -1.404400
  0.779000, -1.303800
  0.781000, -1.205700
  0.783000, -1.110600
  0.785000, -1.018200
  0.787000, -0.928100
  0.789000, -0.841500
  0.791000, -0.758600
  0.793000, -0.678600
  0.795000, -0.601500
  0.797000, -0.527000
  0.799000, -0.455000
  0.801000, -0.385700
  0.803000, -0.319700
  0.805000, -0.256500
  0.807000, -0.196400
  0.809000, -0.138900
  0.811000, -0.083800
  0.813000, -0.032100
  0.815000,  0.016900
  0.817000,  0.063700
  0.819000,  0.107800
  0.821000,  0.149000
  0.823000,  0.187700
  0.825000,  0.224300
  0.827000,  0.258400
  0.829000,  0.290000
  0.831000,  0.319500
  0.833000,  0.347000
  0.835000,  0.372100
  0.837000,  0.395000
  0.839000,  0.415800
  0.841000,  0.434500
  0.843000,  0.451200
  0.845000,  0.465700
  0.847000,  0.478000
  0.849000,  0.488300
  0.851000,  0.496200
  0.853000,  0.502100
  0.855000,  0.506400
  0.857000,  0.508600
  0.859000,  0.508700
  0.861000,  0.506700
  0.863000,  0.502700
  0.865000,  0.497100
  0.867000,  0.489400
  0.869000,  0.479700
  0.871000,  0.468100
  0.873000,  0.454500
  0.875000,  0.439200
  0.877000,  0.422100
  0.879000,  0.403400
  0.881000,  0.383100
  0.883000,  0.360900
  0.885000,  0.337100
  0.887000,  0.311400
  0.889000,  0.284000
  0.891000,  0.255300
  0.893000,  0.224900
  0.895000,  0.193300
  0.897000,  0.160400
  0.899000,  0.126000
  0.901000,  0.090400
  0.903000,  0.053900
  0.905000,  0.016400
  0.907000, -0.021900
  0.909000, -0.061200
  0.911000, -0.101600
  0.913000, -0.142700
  0.915000, -0.184200
  0.917000, -0.226200
  0.919000, -0.268600
  0.921000, -0.311300
  0.923000, -0.354200
  0.925000, -0.397300
  0.927000, -0.440500
  0.929000, -0.484000
  0.931000, -0.527400
  0.933000, -0.570400
  0.935000, -0.613000
  0.937000, -0.655200
  0.939000, -0.697000
  0.941000, -0.738300
  0.943000, -0.778800
  0.945000, -0.818400
  0.947000, -0.857000
  0.949000, -0.894800
  0.951000, -0.931700
  0.953000, -0.967500
  0.955000, -1.002100
  0.957000, -1.035400
  0.959000, -1.067700
  0.961000, -1.098900
  0.963000, -1.128700
  0.965000, -1.157000
  0.967000, -1.184000
  0.969000, -1.209400
  0.971000, -1.233300
  0.973000, -1.255600
  0.975000, -1.276500
  0.977000, -1.295900
  0.979000, -1.313700
  0.981000, -1.329900
  0.983000, -1.344600
  0.985000, -1.357800
  0.987000, -1.369200
  0.989000, -1.378900
  0.991000, -1.387200
  0.993000, -1.393900
  0.995000, -1.399000
  0.997000, -1.402600
  0.999000, -1.404700
  1.001000, -1.405200
  1.003000, -1.404200
  1.005000, -1.401900
  1.007000, -1.398300
  1.009000, -1.393300
  1.011000, -1.387000
  1.013000, -1.379300
  1.015000, -1.370500
  1.017000, -1.360500
  1.019000, -1.349200
  1.021000, -1.336900
  1.023000, -1.323500
  1.025000, -1.309200
  1.027000, -1.293900
  1.029000, -1.277700
  1.031000, -1.260600
  1.033000, -1.242700
  1.035000, -1.224100
  1.037000, -1.204800
  1.039000, -1.184800
  1.041000, -1.164100
  1.043000, -1.142800
  1.045000, -1.121000
  1.047000, -1.098600
  1.049000, -1.075900
  1.051000, -1.052800
  1.053000, -1.029300
  1.055000, -1.005600
  1.057000, -0.981800
  1.059000, -0.957500
  1.061000, -0.933000
  1.063000, -0.908500
  1.065000, -0.883800
  1.067000, -0.858900
  1.069000, -0.834100
  1.071000, -0.809100
  1.073000, -0.784200
  1.075000, -0.759500
  1.077000, -0.734800
  1.079000, -0.710100
  1.081000, -0.685600
  1.083000, -0.661200
  1.085000, -0.637000
  1.087000, -0.613000
  1.089000, -0.589300
  1.091000, -0.565800
  1.093000, -0.542600
  1.095000, -0.519600
  1.097000, -0.497000
  1.099000, -0.474600
  1.101000, -0.452500
  1.103000, -0.430900
  1.105000, -0.409500
  1.107000, -0.388600
  1.109000, -0.368000
  1.111000, -0.347700
  1.113000, -0.327900
  1.115000, -0.308500
  1.117000, -0.289600
  1.119000, -0.271100
  1.121000, -0.253100
  1.123000, -0.235600
  1.125000, -0.218600
  1.127000, -0.202000
  1.129000, -0.185800
  1.131000, -0.170200
  1.133000, -0.155000
  1.135000, -0.140300
  1.137000, -0.126200
  1.139000, -0.112600
  1.141000, -0.099500
  1.143000, -0.087000
  1.145000, -0.075000
  1.147000, -0.063300
  1.149000, -0.052100
  1.151000, -0.041400
  1.153000, -0.031100
  1.155000, -0.021300
  1.157000, -0.012100
  1.159000, -0.003300
  1.161000,  0.005200
  1.163000,  0.013300
  1.165000,  0.020800
  1.167000,  0.027900
  1.169000,  0.034300
  1.171000,  0.040400
  1.173000,  0.046200
  1.175000,  0.051400
  1.177000,  0.055900
  1.179000,  0.060000
  1.181000,  0.063800
  1.183000,  0.067200
  1.185000,  0.070100
  1.187000,  0.072800
  1.189000,  0.075000
  1.191000,  0.076900
  1.193000,  0.078500
  1.195000,  0.079600
  1.197000,  0.080500
  1.199000,  0.081000
  1.201000,  0.081200
  1.203000,  0.081200
  1.205000,  0.081000
  1.207000,  0.080600
  1.209000,  0.079800
  1.211000,  0.078600
  1.213000,  0.077300
  1.215000,  0.075700
  1.217000,  0.073900
  1.219000,  0.072000
  1.221000,  0.069800
  1.223000,  0.067700
  1.225000,  0.065500
  1.227000,  0.063000
  1.229000,  0.060600
  1.231000,  0.058100
  1.233000,  0.055400
  1.235000,  0.052600
  1.237000,  0.049700
  1.239000,  0.046800
  1.241000,  0.043800
  1.243000,  0.040800
  1.245000,  0.037700
  1.247000,  0.034600
  1.249000,  0.031500
  1.251000,  0.028500
  1.253000,  0.025500
  1.255000,  0.022500
  1.257000,  0.019600
  1.259000,  0.016800
  1.261000,  0.013800
  1.263000,  0.011000
  1.265000,  0.008200
  1.267000,  0.005500
  1.269000,  0.002900
  1.271000,  0.000100
  1.273000, -0.002600
  1.275000, -0.005200
  1.277000, -0.007700
  1.279000, -0.010400
  1.281000, -0.013200
  1.283000, -0.015800
  1.285000, -0.018200
  1.287000, -0.020500
  1.289000, -0.022900
  1.291000, -0.025600
  1.293000, -0.028100
  1.295000, -0.030500
  1.297000, -0.032800
  1.299000, -0.035000
  1.301000, -0.037400
  1.303000, -0.039800
  1.305000, -0.042000
  1.307000, -0.044300
  1.309000, -0.046600
  1.311000, -0.048600
  1.313000, -0.050600
  1.315000, -0.052400
  1.317000, -0.054300
  1.319000, -0.056100
  1.321000, -0.057700
  1.323000, -0.059100
  1.325000, -0.060300
  1.327000, -0.061600
  1.329000, -0.062700
  1.331000, -0.063700
  1.333000, -0.064400
  1.335000, -0.064900
  1.337000, -0.065300
  1.339000, -0.065400
  1.341000, -0.065300
  1.343000, -0.064700
  1.345000, -0.063800
  1.347000, -0.062700
  1.349000, -0.061400
  1.351000, -0.059600
  1.353000, -0.057500
  1.355000, -0.055100
  1.357000, -0.052200
  1.359000, -0.049100
  1.361000, -0.045500
  1.363000, -0.041600
  1.365000, -0.037300
  1.367000, -0.032800
  1.369000, -0.027800
  1.371000, -0.022100
  1.373000, -0.016200
  1.375000, -0.009900
  1.377000, -0.003200
  1.379000,  0.003800
  1.381000,  0.011200
  1.383000,  0.018800
  1.385000,  0.026700
  1.387000,  0.035000
  1.389000,  0.043500
  1.391000,  0.052000
  1.393000,  0.060500
  1.395000,  0.069000
  1.397000,  0.077700
  1.399000,  0.086500
