# z (nm)   (kJ/mol)
  0.0740  261.17552
  0.0760  257.61956
  0.0780  254.77244
  0.0800  251.68218
  0.0820  248.98088
  0.0840  246.34059
  0.0860  243.72807
  0.0880  241.07281
  0.0900  238.40948
  0.0920  235.68713
  0.0940  232.91097
  0.0960  230.06294
  0.0980  227.13358
  0.1000  224.11000
  0.1020  220.99317
  0.1040  217.76829
  0.1060  214.44131
  0.1080  211.00119
  0.1100  207.46169
  0.1120  203.80951
  0.1140  200.05745
  0.1160  196.20622
  0.1180  192.25945
  0.1200  188.22370
  0.1220  184.11035
  0.1240  179.93624
  0.1260  175.72399
  0.1280  171.50247
  0.1300  167.31810
  0.1320  163.21278
  0.1340  159.23083
  0.1360  155.40433
  0.1380  151.73806
  0.1400  148.22091
  0.1420  144.80413
  0.1440  141.43848
  0.1460  138.06542
  0.1480  134.64559
  0.1500  131.16002
  0.1520  127.62725
  0.1540  124.09362
  0.1560  120.60277
  0.1580  117.19751
  0.1600  113.90818
  0.1620  110.73109
  0.1640  107.64766
  0.1660  104.62094
  0.1680  101.61734
  0.1700   98.60997
  0.1720   95.59230
  0.1740   92.59198
  0.1760   89.62028
  0.1780   86.70126
  0.1800   83.83076
  0.1820   81.01197
  0.1840   78.22254
  0.1860   75.46703
  0.1880   72.73625
  0.1900   70.04003
  0.1920   67.38063
  0.1940   64.77330
  0.1960   62.22429
  0.1980   59.73672
  0.2000   57.30663
  0.2020   54.92935
  0.2040   52.59520
  0.2060   50.29799
  0.2080   48.02964
  0.2100   45.78864
  0.2120   43.57593
  0.2140   41.39858
  0.2160   39.27036
  0.2180   37.21808
  0.2200   35.23619
  0.2220   33.33213
  0.2240   31.49707
  0.2260   29.71618
  0.2280   27.96324
  0.2300   26.22806
  0.2320   24.47915
  0.2340   22.72304
  0.2360   20.97415
  0.2380   19.24437
  0.2400   17.55851
  0.2420   15.94928
  0.2440   14.42539
  0.2460   12.99427
  0.2480   11.63923
  0.2500   10.35864
  0.2520    9.11484
  0.2540    7.89968
  0.2560    6.69316
  0.2580    5.49354
  0.2600    4.30111
  0.2620    3.12051
  0.2640    1.96981
  0.2660    0.86313
  0.2680   -0.18833
  0.2700   -1.17540
  0.2720   -2.09373
  0.2740   -2.95182
  0.2760   -3.74427
  0.2780   -4.49066
  0.2800   -5.19930
  0.2820   -5.88527
  0.2840   -6.56025
  0.2860   -7.21234
  0.2880   -7.85475
  0.2900   -8.48249
  0.2920   -9.08174
  0.2940   -9.64622
  0.2960  -10.17411
  0.2980  -10.65774
  0.3000  -11.08765
  0.3020  -11.46296
  0.3040  -11.79537
  0.3060  -12.07772
  0.3080  -12.33064
  0.3100  -12.54857
  0.3120  -12.75041
  0.3140  -12.93308
  0.3160  -13.10480
  0.3180  -13.25733
  0.3200  -13.39809
  0.3220  -13.52369
  0.3240  -13.63650
  0.3260  -13.72230
  0.3280  -13.77613
  0.3300  -13.79890
  0.3320  -13.78705
  0.3340  -13.74344
  0.3360  -13.66757
  0.3380  -13.57162
  0.3400  -13.45645
  0.3420  -13.32939
  0.3440  -13.20637
  0.3460  -13.08208
  0.3480  -12.95149
  0.3500  -12.81896
  0.3520  -12.68163
  0.3540  -12.51871
  0.3560  -12.34119
  0.3580  -12.13952
  0.3600  -11.91021
  0.3620  -11.67222
  0.3640  -11.42540
  0.3660  -11.17006
  0.3680  -10.92697
  0.3700  -10.68502
  0.3720  -10.45753
  0.3740  -10.23948
  0.3760  -10.03126
  0.3780   -9.81508
  0.3800   -9.60268
  0.3820   -9.39071
  0.3840   -9.17625
  0.3860   -8.97267
  0.3880   -8.77528
  0.3900   -8.59496
  0.3920   -8.41993
  0.3940   -8.25356
  0.3960   -8.10060
  0.3980   -7.94908
  0.4000   -7.79986
  0.4020   -7.64683
  0.4040   -7.49227
  0.4060   -7.33598
  0.4080   -7.17799
  0.4100   -7.02512
  0.4120   -6.87347
  0.4140   -6.72702
  0.4160   -6.59621
  0.4180   -6.48037
  0.4200   -6.36680
  0.4220   -6.27046
  0.4240   -6.18554
  0.4260   -6.11122
  0.4280   -6.05420
  0.4300   -5.99841
  0.4320   -5.94498
  0.4340   -5.89163
  0.4360   -5.84553
  0.4380   -5.79723
  0.4400   -5.74864
  0.4420   -5.69287
  0.4440   -5.63014
  0.4460   -5.56937
  0.4480   -5.49905
  0.4500   -5.43955
  0.4520   -5.37960
  0.4540   -5.31887
  0.4560   -5.26730
  0.4580   -5.20978
  0.4600   -5.15598
  0.4620   -5.09990
  0.4640   -5.02486
  0.4660   -4.94137
  0.4680   -4.85287
  0.4700   -4.76032
  0.4720   -4.67534
  0.4740   -4.60340
  0.4760   -4.54792
  0.4780   -4.50944
  0.4800   -4.48551
  0.4820   -4.46727
  0.4840   -4.45304
  0.4860   -4.43625
  0.4880   -4.40836
  0.4900   -4.36796
  0.4920   -4.31553
  0.4940   -4.25099
  0.4960   -4.18021
  0.4980   -4.11090
  0.5000   -4.04446
  0.5020   -3.99590
  0.5040   -3.96735
  0.5060   -3.95757
  0.5080   -3.96641
  0.5100   -3.97571
  0.5120   -3.99023
  0.5140   -3.99467
  0.5160   -3.99016
  0.5180   -3.95742
  0.5200   -3.90590
  0.5220   -3.84099
  0.5240   -3.75883
  0.5260   -3.66637
  0.5280   -3.56579
  0.5300   -3.46869
  0.5320   -3.37358
  0.5340   -3.27856
  0.5360   -3.17808
  0.5380   -3.06809
  0.5400   -2.96501
  0.5420   -2.86349
  0.5440   -2.76971
  0.5460   -2.66365
  0.5480   -2.55804
  0.5500   -2.44044
  0.5520   -2.30614
  0.5540   -2.16203
  0.5560   -2.00277
  0.5580   -1.82974
  0.5600   -1.65428
  0.5620   -1.46846
  0.5640   -1.29015
  0.5660   -1.11887
  0.5680   -0.94757
  0.5700   -0.77692
  0.5720   -0.60058
  0.5740   -0.42845
  0.5760   -0.25618
  0.5780   -0.09092
  0.5800    0.07439
  0.5820    0.22813
  0.5840    0.37300
  0.5860    0.50050
  0.5880    0.61831
  0.5900    0.71582
  0.5920    0.80580
  0.5940    0.88261
  0.5960    0.94758
  0.5980    0.99711
  0.6000    1.03777
  0.6020    1.07199
  0.6040    1.09120
  0.6060    1.10648
  0.6080    1.10094
  0.6100    1.08582
  0.6120    1.06393
  0.6140    1.03314
  0.6160    0.98600
  0.6180    0.94192
  0.6200    0.89207
  0.6220    0.84099
  0.6240    0.78729
  0.6260    0.72841
  0.6280    0.66951
  0.6300    0.61699
  0.6320    0.55520
  0.6340    0.49823
  0.6360    0.45127
  0.6380    0.40313
  0.6400    0.35842
  0.6420    0.32252
  0.6440    0.29075
  0.6460    0.26692
  0.6480    0.23616
  0.6500    0.20350
  0.6520    0.16669
  0.6540    0.12991
  0.6560    0.09541
  0.6580    0.05311
  0.6600    0.01292
  0.6620   -0.02303
  0.6640   -0.05559
  0.6660   -0.08402
  0.6680   -0.09614
  0.6700   -0.11354
  0.6720   -0.12308
  0.6740   -0.13002
  0.6760   -0.13260
  0.6780   -0.13528
  0.6800   -0.14205
  0.6820   -0.14213
  0.6840   -0.14108
  0.6860   -0.13988
  0.6880   -0.13535
  0.6900   -0.12688
  0.6920   -0.11969
  0.6940   -0.10575
  0.6960   -0.09982
  0.6980   -0.08980
  0.7000   -0.07595
  0.7020   -0.06715
  0.7040   -0.05860
  0.7060   -0.05271
  0.7080   -0.04680
  0.7100   -0.04574
  0.7120   -0.04796
  0.7140   -0.05304
  0.7160   -0.06299
  0.7180   -0.06915
  0.7200   -0.07406
  0.7220   -0.07917
  0.7240   -0.08450
  0.7260   -0.08357
  0.7280   -0.07523
  0.7300   -0.06372
  0.7320   -0.05445
  0.7340   -0.04679
  0.7360   -0.03774
  0.7380   -0.04036
  0.7400   -0.04143
  0.7420   -0.04436
  0.7440   -0.04460
  0.7460   -0.04551
  0.7480   -0.05245
  0.7500   -0.05129
  0.7520   -0.05070
  0.7540   -0.05299
  0.7560   -0.05334
  0.7580   -0.05205
  0.7600   -0.05324
  0.7620   -0.05413
  0.7640   -0.05231
  0.7660   -0.04935
  0.7680   -0.04318
  0.7700   -0.02865
  0.7720   -0.01515
  0.7740    0.00623
  0.7760    0.03251
  0.7780    0.05330
  0.7800    0.07391
  0.7820    0.08034
  0.7840    0.08077
  0.7860    0.06775
  0.7880    0.05703
  0.7900    0.03636
  0.7920    0.01219
  0.7940   -0.00569
  0.7960   -0.02538
  0.7980   -0.03456
  0.8000   -0.03961
  0.8020   -0.03861
  0.8040   -0.03356
  0.8060   -0.02577
  0.8080   -0.01409
  0.8100    0.00395
  0.8120    0.01801
  0.8140    0.03264
  0.8160    0.05495
  0.8180    0.06133
  0.8200    0.06893
  0.8220    0.07457
  0.8240    0.07707
  0.8260    0.07875
  0.8280    0.07985
  0.8300    0.08069
  0.8320    0.08415
  0.8340    0.09126
  0.8360    0.09767
  0.8380    0.10895
  0.8400    0.11821
  0.8420    0.12916
  0.8440    0.13338
  0.8460    0.13616
  0.8480    0.13518
  0.8500    0.14253
  0.8520    0.14215
  0.8540    0.15420
  0.8560    0.17720
  0.8580    0.19347
  0.8600    0.21673
  0.8620    0.23697
  0.8640    0.24826
  0.8660    0.25478
  0.8680    0.25522
  0.8700    0.25592
  0.8720    0.26055
  0.8740    0.26882
  0.8760    0.28051
  0.8780    0.29060
  0.8800    0.30373
  0.8820    0.31501
  0.8840    0.32329
  0.8860    0.32959
  0.8880    0.33699
  0.8900    0.33829
  0.8920    0.34258
  0.8940    0.34762
  0.8960    0.34629
  0.8980    0.35079
  0.9000    0.34958
  0.9020    0.34716
  0.9040    0.33795
  0.9060    0.32469
  0.9080    0.30683
  0.9100    0.28129
  0.9120    0.25984
  0.9140    0.22928
  0.9160    0.19659
  0.9180    0.16956
  0.9200    0.14344
  0.9220    0.12585
  0.9240    0.10577
  0.9260    0.09519
  0.9280    0.08950
  0.9300    0.08606
  0.9320    0.07752
  0.9340    0.06544
  0.9360    0.05589
  0.9380    0.04706
  0.9400    0.03513
  0.9420    0.02004
  0.9440    0.00393
  0.9460   -0.00910
  0.9480   -0.02111
  0.9500   -0.03227
  0.9520   -0.04187
  0.9540   -0.05897
  0.9560   -0.07187
  0.9580   -0.08084
  0.9600   -0.09425
  0.9620   -0.10749
  0.9640   -0.11569
  0.9660   -0.12599
  0.9680   -0.12493
  0.9700   -0.13139
  0.9720   -0.12650
  0.9740   -0.12538
  0.9760   -0.11251
  0.9780   -0.10436
  0.9800   -0.09111
  0.9820   -0.08494
  0.9840   -0.08420
  0.9860   -0.09201
  0.9880   -0.11302
  0.9900   -0.14427
  0.9920   -0.17837
  0.9940   -0.21981
  0.9960   -0.26255
  0.9980   -0.30505
  1.0000   -0.34413
