# z (nm)   (kJ/mol)
  0.3940  316.04903
  0.3960  311.54989
  0.3980  309.19156
  0.4000  306.95520
  0.4020  304.99298
  0.4040  303.01151
  0.4060  301.08673
  0.4080  299.22765
  0.4100  297.33026
  0.4120  295.36992
  0.4140  293.30462
  0.4160  291.05942
  0.4180  288.57922
  0.4200  285.76071
  0.4220  282.50468
  0.4240  278.68677
  0.4260  274.19856
  0.4280  268.97822
  0.4300  263.06257
  0.4320  256.56802
  0.4340  249.63503
  0.4360  242.37755
  0.4380  234.90791
  0.4400  227.45719
  0.4420  220.45939
  0.4440  214.26047
  0.4460  208.73421
  0.4480  203.44801
  0.4500  198.19319
  0.4520  192.98493
  0.4540  187.70703
  0.4560  182.09054
  0.4580  175.95645
  0.4600  169.26223
  0.4620  162.07931
  0.4640  154.59846
  0.4660  147.05531
  0.4680  139.63454
  0.4700  132.44725
  0.4720  125.51174
  0.4740  118.78877
  0.4760  112.17520
  0.4780  105.61972
  0.4800   99.19172
  0.4820   93.05776
  0.4840   87.35426
  0.4860   82.10888
  0.4880   77.27569
  0.4900   72.77183
  0.4920   68.53382
  0.4940   64.49022
  0.4960   60.60893
  0.4980   56.91432
  0.5000   53.46494
  0.5020   50.26538
  0.5040   47.24968
  0.5060   44.31498
  0.5080   41.40178
  0.5100   38.51941
  0.5120   35.70812
  0.5140   33.03272
  0.5160   30.54185
  0.5180   28.24950
  0.5200   26.14747
  0.5220   24.20955
  0.5240   22.40482
  0.5260   20.71214
  0.5280   19.12876
  0.5300   17.66146
  0.5320   16.34041
  0.5340   15.18010
  0.5360   14.18549
  0.5380   13.33221
  0.5400   12.59252
  0.5420   11.93899
  0.5440   11.35262
  0.5460   10.83710
  0.5480   10.39066
  0.5500    9.99778
  0.5520    9.66253
  0.5540    9.37579
  0.5560    9.13214
  0.5580    8.92477
  0.5600    8.76415
  0.5620    8.65481
  0.5640    8.59773
  0.5660    8.60763
  0.5680    8.68874
  0.5700    8.83086
  0.5720    9.02320
  0.5740    9.27778
  0.5760    9.56366
  0.5780    9.88519
  0.5800   10.22709
  0.5820   10.60519
  0.5840   11.03271
  0.5860   11.53514
  0.5880   12.09909
  0.5900   12.71787
  0.5920   13.35645
  0.5940   13.95317
  0.5960   14.45834
  0.5980   14.84489
  0.6000   15.11591
  0.6020   15.29809
  0.6040   15.43636
  0.6060   15.56167
  0.6080   15.68831
  0.6100   15.78882
  0.6120   15.81057
  0.6140   15.71015
  0.6160   15.45585
  0.6180   15.04986
  0.6200   14.51396
  0.6220   13.89442
  0.6240   13.21874
  0.6260   12.51329
  0.6280   11.78972
  0.6300   11.05181
  0.6320   10.30523
  0.6340    9.55686
  0.6360    8.82357
  0.6380    8.09859
  0.6400    7.39685
  0.6420    6.71557
  0.6440    6.06220
  0.6460    5.43941
  0.6480    4.84642
  0.6500    4.29910
  0.6520    3.78862
  0.6540    3.30927
  0.6560    2.86674
  0.6580    2.45719
  0.6600    2.06735
  0.6620    1.70223
  0.6640    1.36258
  0.6660    1.03946
  0.6680    0.72995
  0.6700    0.43318
  0.6720    0.14933
  0.6740   -0.14342
  0.6760   -0.40808
  0.6780   -0.67236
  0.6800   -0.90964
  0.6820   -1.12884
  0.6840   -1.33797
  0.6860   -1.53590
  0.6880   -1.73525
  0.6900   -1.93784
  0.6920   -2.15771
  0.6940   -2.38729
  0.6960   -2.63205
  0.6980   -2.88678
  0.7000   -3.15335
  0.7020   -3.42231
  0.7040   -3.68898
  0.7060   -3.95471
  0.7080   -4.22422
  0.7100   -4.49740
  0.7120   -4.76830
  0.7140   -5.05448
  0.7160   -5.35106
  0.7180   -5.64344
  0.7200   -5.93665
  0.7220   -6.22110
  0.7240   -6.49151
  0.7260   -6.74022
  0.7280   -6.95986
  0.7300   -7.14881
  0.7320   -7.30739
  0.7340   -7.42324
  0.7360   -7.50287
  0.7380   -7.54144
  0.7400   -7.53617
  0.7420   -7.47451
  0.7440   -7.34706
  0.7460   -7.17132
  0.7480   -6.95332
  0.7500   -6.70534
  0.7520   -6.43614
  0.7540   -6.14394
  0.7560   -5.83254
  0.7580   -5.48735
  0.7600   -5.09726
  0.7620   -4.66722
  0.7640   -4.21159
  0.7660   -3.74393
  0.7680   -3.28216
  0.7700   -2.84544
  0.7720   -2.44628
  0.7740   -2.08003
  0.7760   -1.73798
  0.7780   -1.41117
  0.7800   -1.09568
  0.7820   -0.78645
  0.7840   -0.48977
  0.7860   -0.21294
  0.7880    0.04628
  0.7900    0.27008
  0.7920    0.46995
  0.7940    0.62500
  0.7960    0.74552
  0.7980    0.83151
  0.8000    0.88914
  0.8020    0.91903
  0.8040    0.92192
  0.8060    0.91448
  0.8080    0.89099
  0.8100    0.87520
  0.8120    0.86319
  0.8140    0.86543
  0.8160    0.87741
  0.8180    0.90592
  0.8200    0.95015
  0.8220    1.00237
  0.8240    1.06124
  0.8260    1.13149
  0.8280    1.19763
  0.8300    1.25791
  0.8320    1.30954
  0.8340    1.35603
  0.8360    1.39472
  0.8380    1.42842
  0.8400    1.45917
  0.8420    1.48866
  0.8440    1.50600
  0.8460    1.51897
  0.8480    1.52150
  0.8500    1.52327
  0.8520    1.53064
  0.8540    1.53797
  0.8560    1.55084
  0.8580    1.55878
  0.8600    1.57445
  0.8620    1.58095
  0.8640    1.58752
  0.8660    1.58594
  0.8680    1.57713
  0.8700    1.56476
  0.8720    1.54525
  0.8740    1.52375
  0.8760    1.49986
  0.8780    1.47767
  0.8800    1.45365
  0.8820    1.43353
  0.8840    1.41102
  0.8860    1.38850
  0.8880    1.36195
  0.8900    1.34584
  0.8920    1.32213
  0.8940    1.30269
  0.8960    1.28153
  0.8980    1.26135
  0.9000    1.24777
  0.9020    1.22922
  0.9040    1.21697
  0.9060    1.19496
  0.9080    1.17694
  0.9100    1.15062
  0.9120    1.11986
  0.9140    1.08199
  0.9160    1.03684
  0.9180    0.98352
  0.9200    0.92660
  0.9220    0.86595
  0.9240    0.80272
  0.9260    0.74342
  0.9280    0.68745
  0.9300    0.63660
  0.9320    0.59458
  0.9340    0.56533
  0.9360    0.52498
  0.9380    0.48228
  0.9400    0.44577
  0.9420    0.41570
  0.9440    0.39573
  0.9460    0.37861
  0.9480    0.36135
  0.9500    0.34655
  0.9520    0.32534
  0.9540    0.29627
  0.9560    0.26336
  0.9580    0.23312
  0.9600    0.18320
  0.9620    0.13980
  0.9640    0.09162
  0.9660    0.03899
  0.9680   -0.01987
  0.9700   -0.06755
  0.9720   -0.10904
  0.9740   -0.13973
  0.9760   -0.15129
  0.9780   -0.14826
  0.9800   -0.12816
  0.9820   -0.10485
  0.9840   -0.08417
  0.9860   -0.07001
  0.9880   -0.07343
  0.9900   -0.09708
  0.9920   -0.14109
  0.9940   -0.20294
  0.9960   -0.27119
  0.9980   -0.33137
  1.0000   -0.38444
  1.0020   -0.42433
  1.0040   -0.44029
  1.0060   -0.43764
  1.0080   -0.41536
  1.0100   -0.37993
  1.0120   -0.33946
  1.0140   -0.30090
  1.0160   -0.27313
  1.0180   -0.25221
  1.0200   -0.24801
  1.0220   -0.25242
  1.0240   -0.27025
  1.0260   -0.29414
  1.0280   -0.32425
  1.0300   -0.35888
  1.0320   -0.39919
  1.0340   -0.42757
  1.0360   -0.45532
  1.0380   -0.47614
  1.0400   -0.48682
  1.0420   -0.49178
  1.0440   -0.48700
  1.0460   -0.47649
  1.0480   -0.45851
  1.0500   -0.43373
  1.0520   -0.41472
  1.0540   -0.39346
  1.0560   -0.37362
  1.0580   -0.35675
  1.0600   -0.35081
  1.0620   -0.35451
  1.0640   -0.36905
  1.0660   -0.38608
  1.0680   -0.40847
  1.0700   -0.42210
  1.0720   -0.43737
  1.0740   -0.44117
  1.0760   -0.43902
  1.0780   -0.41711
  1.0800   -0.38836
  1.0820   -0.35831
  1.0840   -0.33054
  1.0860   -0.30155
  1.0880   -0.28197
  1.0900   -0.26746
  1.0920   -0.26095
  1.0940   -0.25920
  1.0960   -0.25600
  1.0980   -0.25270
  1.1000   -0.25190
  1.1020   -0.24489
  1.1040   -0.23685
  1.1060   -0.22795
  1.1080   -0.21422
  1.1100   -0.20839
  1.1120   -0.20339
  1.1140   -0.20104
  1.1160   -0.20257
  1.1180   -0.20252
  1.1200   -0.20508
  1.1220   -0.20372
  1.1240   -0.19791
  1.1260   -0.18827
  1.1280   -0.17991
  1.1300   -0.16403
  1.1320   -0.15265
  1.1340   -0.13388
  1.1360   -0.11252
  1.1380   -0.09301
  1.1400   -0.07384
  1.1420   -0.05376
  1.1440   -0.03402
  1.1460   -0.02230
  1.1480   -0.00710
  1.1500    0.00204
  1.1520    0.00918
  1.1540    0.01295
  1.1560    0.01331
  1.1580    0.01181
  1.1600    0.01588
  1.1620    0.02482
  1.1640    0.03337
  1.1660    0.04715
  1.1680    0.06149
  1.1700    0.07817
  1.1720    0.10036
  1.1740    0.12114
  1.1760    0.14091
  1.1780    0.16645
  1.1800    0.19055
  1.1820    0.21071
  1.1840    0.22644
  1.1860    0.23915
  1.1880    0.24837
  1.1900    0.26155
  1.1920    0.27551
  1.1940    0.29052
  1.1960    0.30566
  1.1980    0.31679
  1.2000    0.32471
