# z (nm)   (kJ/mol)
  0.4580  309.64106
  0.4600  304.27010
  0.4620  299.86346
  0.4640  296.35141
  0.4660  293.24896
  0.4680  290.15317
  0.4700  287.04412
  0.4720  283.84722
  0.4740  280.54762
  0.4760  277.10316
  0.4780  273.49530
  0.4800  269.67828
  0.4820  265.63188
  0.4840  261.31930
  0.4860  256.71373
  0.4880  251.77845
  0.4900  246.48937
  0.4920  240.82173
  0.4940  234.76433
  0.4960  228.31945
  0.4980  221.52184
  0.5000  214.45058
  0.5020  207.24269
  0.5040  200.06021
  0.5060  193.06412
  0.5080  186.36971
  0.5100  180.02277
  0.5120  174.02480
  0.5140  168.37399
  0.5160  163.05270
  0.5180  158.03759
  0.5200  153.28746
  0.5220  148.77342
  0.5240  144.44279
  0.5260  140.25625
  0.5280  136.17667
  0.5300  132.22033
  0.5320  128.41456
  0.5340  124.79118
  0.5360  121.35251
  0.5380  118.06446
  0.5400  114.85727
  0.5420  111.70559
  0.5440  108.58700
  0.5460  105.52098
  0.5480  102.54417
  0.5500   99.67579
  0.5520   96.93502
  0.5540   94.33326
  0.5560   91.86027
  0.5580   89.50113
  0.5600   87.21837
  0.5620   84.96529
  0.5640   82.68379
  0.5660   80.35743
  0.5680   78.04296
  0.5700   75.80616
  0.5720   73.71040
  0.5740   71.76417
  0.5760   69.89520
  0.5780   68.00439
  0.5800   65.98413
  0.5820   63.84635
  0.5840   61.64513
  0.5860   59.46077
  0.5880   57.30175
  0.5900   55.15124
  0.5920   52.97720
  0.5940   50.74282
  0.5960   48.42513
  0.5980   46.00641
  0.6000   43.52934
  0.6020   41.02205
  0.6040   38.52222
  0.6060   36.04802
  0.6080   33.57872
  0.6100   31.12102
  0.6120   28.68247
  0.6140   26.31259
  0.6160   24.05002
  0.6180   21.93110
  0.6200   19.95115
  0.6220   18.07579
  0.6240   16.24953
  0.6260   14.44633
  0.6280   12.69003
  0.6300   11.07116
  0.6320    9.64956
  0.6340    8.41958
  0.6360    7.27910
  0.6380    6.14713
  0.6400    4.97718
  0.6420    3.79833
  0.6440    2.68562
  0.6460    1.69787
  0.6480    0.86541
  0.6500    0.17202
  0.6520   -0.43491
  0.6540   -1.00593
  0.6560   -1.57386
  0.6580   -2.14145
  0.6600   -2.68842
  0.6620   -3.15810
  0.6640   -3.54712
  0.6660   -3.84733
  0.6680   -4.07599
  0.6700   -4.26977
  0.6720   -4.45560
  0.6740   -4.65148
  0.6760   -4.85793
  0.6780   -5.06368
  0.6800   -5.25141
  0.6820   -5.40791
  0.6840   -5.55764
  0.6860   -5.69039
  0.6880   -5.81884
  0.6900   -5.92858
  0.6920   -6.01180
  0.6940   -6.05837
  0.6960   -6.07112
  0.6980   -6.04820
  0.7000   -6.00217
  0.7020   -5.93960
  0.7040   -5.86282
  0.7060   -5.75932
  0.7080   -5.65183
  0.7100   -5.52406
  0.7120   -5.39565
  0.7140   -5.26077
  0.7160   -5.12012
  0.7180   -4.95757
  0.7200   -4.78083
  0.7220   -4.58595
  0.7240   -4.39695
  0.7260   -4.21182
  0.7280   -4.04077
  0.7300   -3.87346
  0.7320   -3.71820
  0.7340   -3.55483
  0.7360   -3.39590
  0.7380   -3.28059
  0.7400   -3.18575
  0.7420   -3.10764
  0.7440   -3.01025
  0.7460   -2.87059
  0.7480   -2.68451
  0.7500   -2.49035
  0.7520   -2.30933
  0.7540   -2.14790
  0.7560   -2.02225
  0.7580   -1.92002
  0.7600   -1.85829
  0.7620   -1.80844
  0.7640   -1.76689
  0.7660   -1.70522
  0.7680   -1.62547
  0.7700   -1.51805
  0.7720   -1.37695
  0.7740   -1.22202
  0.7760   -1.07340
  0.7780   -0.95889
  0.7800   -0.87559
  0.7820   -0.83444
  0.7840   -0.82959
  0.7860   -0.85120
  0.7880   -0.87538
  0.7900   -0.89059
  0.7920   -0.89026
  0.7940   -0.86090
  0.7960   -0.80022
  0.7980   -0.73291
  0.8000   -0.64362
  0.8020   -0.55161
  0.8040   -0.48177
  0.8060   -0.43429
  0.8080   -0.43341
  0.8100   -0.46353
  0.8120   -0.51562
  0.8140   -0.57925
  0.8160   -0.63905
  0.8180   -0.67412
  0.8200   -0.68003
  0.8220   -0.64892
  0.8240   -0.61562
  0.8260   -0.57051
  0.8280   -0.55734
  0.8300   -0.55562
  0.8320   -0.58931
  0.8340   -0.63879
  0.8360   -0.69683
  0.8380   -0.74420
  0.8400   -0.77482
  0.8420   -0.78743
  0.8440   -0.79136
  0.8460   -0.77265
  0.8480   -0.75634
  0.8500   -0.74105
  0.8520   -0.72540
  0.8540   -0.71666
  0.8560   -0.71410
  0.8580   -0.72581
  0.8600   -0.73769
  0.8620   -0.74806
  0.8640   -0.75330
  0.8660   -0.76260
  0.8680   -0.76249
  0.8700   -0.75955
  0.8720   -0.75355
  0.8740   -0.74263
  0.8760   -0.73001
  0.8780   -0.71900
  0.8800   -0.71047
  0.8820   -0.69925
  0.8840   -0.70091
  0.8860   -0.70551
  0.8880   -0.70666
  0.8900   -0.70615
  0.8920   -0.70864
  0.8940   -0.70281
  0.8960   -0.69149
  0.8980   -0.68840
  0.9000   -0.68995
  0.9020   -0.70143
  0.9040   -0.70924
  0.9060   -0.72104
  0.9080   -0.73077
  0.9100   -0.72258
  0.9120   -0.71380
  0.9140   -0.68483
  0.9160   -0.64788
  0.9180   -0.60237
  0.9200   -0.56508
  0.9220   -0.53647
  0.9240   -0.52780
  0.9260   -0.53777
  0.9280   -0.57941
  0.9300   -0.62960
  0.9320   -0.65847
  0.9340   -0.66509
  0.9360   -0.64708
  0.9380   -0.61812
  0.9400   -0.61515
  0.9420   -0.62917
  0.9440   -0.65047
  0.9460   -0.64724
  0.9480   -0.61347
  0.9500   -0.56587
  0.9520   -0.53215
  0.9540   -0.51508
  0.9560   -0.52318
  0.9580   -0.53635
  0.9600   -0.54677
  0.9620   -0.54851
  0.9640   -0.54791
  0.9660   -0.53782
  0.9680   -0.51588
  0.9700   -0.48469
  0.9720   -0.46002
  0.9740   -0.43831
  0.9760   -0.42641
  0.9780   -0.42028
  0.9800   -0.41672
  0.9820   -0.41072
  0.9840   -0.40597
  0.9860   -0.39216
  0.9880   -0.36968
  0.9900   -0.34437
  0.9920   -0.31562
  0.9940   -0.29252
  0.9960   -0.27189
  0.9980   -0.25338
  1.0000   -0.23978
  1.0020   -0.22670
  1.0040   -0.22059
  1.0060   -0.21393
  1.0080   -0.21276
  1.0100   -0.21139
  1.0120   -0.21745
  1.0140   -0.21426
  1.0160   -0.19844
  1.0180   -0.16575
  1.0200   -0.11639
  1.0220   -0.06253
  1.0240   -0.00645
  1.0260    0.03064
  1.0280    0.04914
  1.0300    0.04503
  1.0320    0.02276
  1.0340   -0.00466
  1.0360   -0.03208
  1.0380   -0.04801
  1.0400   -0.04991
  1.0420   -0.03118
  1.0440    0.00149
  1.0460    0.03643
  1.0480    0.07959
  1.0500    0.11833
  1.0520    0.14496
  1.0540    0.16360
  1.0560    0.16710
  1.0580    0.15766
  1.0600    0.13693
  1.0620    0.11244
  1.0640    0.09472
  1.0660    0.07615
  1.0680    0.06555
  1.0700    0.06126
  1.0720    0.07334
  1.0740    0.09744
  1.0760    0.12471
  1.0780    0.15875
  1.0800    0.18342
  1.0820    0.19197
  1.0840    0.17981
  1.0860    0.16525
  1.0880    0.13427
  1.0900    0.10328
  1.0920    0.08301
  1.0940    0.08318
  1.0960    0.09396
  1.0980    0.11972
  1.1000    0.14570
  1.1020    0.17497
  1.1040    0.19891
  1.1060    0.20849
  1.1080    0.20870
  1.1100    0.21220
  1.1120    0.21438
  1.1140    0.22109
  1.1160    0.24110
  1.1180    0.26461
  1.1200    0.29708
  1.1220    0.32882
  1.1240    0.36216
  1.1260    0.38811
  1.1280    0.40839
  1.1300    0.41030
  1.1320    0.40854
  1.1340    0.41466
  1.1360    0.41416
  1.1380    0.41172
  1.1400    0.41759
  1.1420    0.43133
  1.1440    0.45887
  1.1460    0.48838
  1.1480    0.52300
  1.1500    0.55527
  1.1520    0.57665
  1.1540    0.59550
  1.1560    0.60592
  1.1580    0.60572
  1.1600    0.60377
  1.1620    0.59829
  1.1640    0.59812
  1.1660    0.59884
  1.1680    0.62096
  1.1700    0.63855
  1.1720    0.66226
  1.1740    0.68957
  1.1760    0.70586
  1.1780    0.71669
  1.1800    0.71928
  1.1820    0.70594
  1.1840    0.68707
  1.1860    0.67075
  1.1880    0.66156
  1.1900    0.67100
  1.1920    0.69195
  1.1940    0.72523
  1.1960    0.76385
  1.1980    0.79631
  1.2000    0.82480
