# z (nm)   (kJ/mol)
  0.255000, -1.845100
  0.257000, -2.643800
  0.259000, -3.429400
  0.261000, -4.175400
  0.263000, -4.940200
  0.265000, -5.688800
  0.267000, -6.419600
  0.269000, -7.156200
  0.271000, -7.884800
  0.273000, -8.606500
  0.275000, -9.311000
  0.277000, -9.998600
  0.279000,-10.678900
  0.281000,-11.345100
  0.283000,-11.988600
  0.285000,-12.612900
  0.287000,-13.222000
  0.289000,-13.810900
  0.291000,-14.378200
  0.293000,-14.925900
  0.295000,-15.451000
  0.297000,-15.953400
  0.299000,-16.434100
  0.301000,-16.892100
  0.303000,-17.326300
  0.305000,-17.736500
  0.307000,-18.123600
  0.309000,-18.486500
  0.311000,-18.824600
  0.313000,-19.138400
  0.315000,-19.429100
  0.317000,-19.696200
  0.319000,-19.939300
  0.321000,-20.158200
  0.323000,-20.352700
  0.325000,-20.525700
  0.327000,-20.677300
  0.329000,-20.806700
  0.331000,-20.913300
  0.333000,-20.998800
  0.335000,-21.064600
  0.337000,-21.111000
  0.339000,-21.138900
  0.341000,-21.147800
  0.343000,-21.138700
  0.345000,-21.113300
  0.347000,-21.069800
  0.349000,-21.010500
  0.351000,-20.937100
  0.353000,-20.850200
  0.355000,-20.751600
  0.357000,-20.640400
  0.359000,-20.517000
  0.361000,-20.383400
  0.363000,-20.241000
  0.365000,-20.089100
  0.367000,-19.927300
  0.369000,-19.759700
  0.371000,-19.586600
  0.373000,-19.406400
  0.375000,-19.220800
  0.377000,-19.031400
  0.379000,-18.838500
  0.381000,-18.642300
  0.383000,-18.442500
  0.385000,-18.239500
  0.387000,-18.033600
  0.389000,-17.825900
  0.391000,-17.616900
  0.393000,-17.406000
  0.395000,-17.193900
  0.397000,-16.980600
  0.399000,-16.766300
  0.401000,-16.551300
  0.403000,-16.335500
  0.405000,-16.119500
  0.407000,-15.903100
  0.409000,-15.686000
  0.411000,-15.468900
  0.413000,-15.252700
  0.415000,-15.036600
  0.417000,-14.820400
  0.419000,-14.604600
  0.421000,-14.389100
  0.423000,-14.174300
  0.425000,-13.960000
  0.427000,-13.746100
  0.429000,-13.532900
  0.431000,-13.320700
  0.433000,-13.109000
  0.435000,-12.898100
  0.437000,-12.688400
  0.439000,-12.479900
  0.441000,-12.272900
  0.443000,-12.067100
  0.445000,-11.862900
  0.447000,-11.660200
  0.449000,-11.459600
  0.451000,-11.260900
  0.453000,-11.063700
  0.455000,-10.868600
  0.457000,-10.675700
  0.459000,-10.485000
  0.461000,-10.296700
  0.463000,-10.111100
  0.465000, -9.928400
  0.467000, -9.748200
  0.469000, -9.570400
  0.471000, -9.395900
  0.473000, -9.224800
  0.475000, -9.056400
  0.477000, -8.891100
  0.479000, -8.728900
  0.481000, -8.569900
  0.483000, -8.414300
  0.485000, -8.261600
  0.487000, -8.112600
  0.489000, -7.967500
  0.491000, -7.825700
  0.493000, -7.686800
  0.495000, -7.551100
  0.497000, -7.418700
  0.499000, -7.289400
  0.501000, -7.162700
  0.503000, -7.039200
  0.505000, -6.918800
  0.507000, -6.801100
  0.509000, -6.685500
  0.511000, -6.572700
  0.513000, -6.462600
  0.515000, -6.354800
  0.517000, -6.249200
  0.519000, -6.145700
  0.521000, -6.044200
  0.523000, -5.944500
  0.525000, -5.846600
  0.527000, -5.750100
  0.529000, -5.655100
  0.531000, -5.561700
  0.533000, -5.469500
  0.535000, -5.378200
  0.537000, -5.288000
  0.539000, -5.198600
  0.541000, -5.110000
  0.543000, -5.022100
  0.545000, -4.935000
  0.547000, -4.848900
  0.549000, -4.763300
  0.551000, -4.677900
  0.553000, -4.592700
  0.555000, -4.507500
  0.557000, -4.422900
  0.559000, -4.339000
  0.561000, -4.255300
  0.563000, -4.172100
  0.565000, -4.089300
  0.567000, -4.006800
  0.569000, -3.924500
  0.571000, -3.842400
  0.573000, -3.761100
  0.575000, -3.680700
  0.577000, -3.600700
  0.579000, -3.520800
  0.581000, -3.441600
  0.583000, -3.363300
  0.585000, -3.286200
  0.587000, -3.210500
  0.589000, -3.135700
  0.591000, -3.062600
  0.593000, -2.990900
  0.595000, -2.920000
  0.597000, -2.850500
  0.599000, -2.782300
  0.601000, -2.715400
  0.603000, -2.650300
  0.605000, -2.587200
  0.607000, -2.526500
  0.609000, -2.467300
  0.611000, -2.410100
  0.613000, -2.355700
  0.615000, -2.303400
  0.617000, -2.253100
  0.619000, -2.204700
  0.621000, -2.158600
  0.623000, -2.115400
  0.625000, -2.074800
  0.627000, -2.036600
  0.629000, -2.001000
  0.631000, -1.968100
  0.633000, -1.938200
  0.635000, -1.910600
  0.637000, -1.885700
  0.639000, -1.863300
  0.641000, -1.842900
  0.643000, -1.824900
  0.645000, -1.809100
  0.647000, -1.795200
  0.649000, -1.783500
  0.651000, -1.774100
  0.653000, -1.767100
  0.655000, -1.762200
  0.657000, -1.759000
  0.659000, -1.758000
  0.661000, -1.758600
  0.663000, -1.760600
  0.665000, -1.763900
  0.667000, -1.768400
  0.669000, -1.774200
  0.671000, -1.781000
  0.673000, -1.789500
  0.675000, -1.799000
  0.677000, -1.808800
  0.679000, -1.819400
  0.681000, -1.830300
  0.683000, -1.841300
  0.685000, -1.852300
  0.687000, -1.863900
  0.689000, -1.876100
  0.691000, -1.888600
  0.693000, -1.900600
  0.695000, -1.912300
  0.697000, -1.923600
  0.699000, -1.934400
  0.701000, -1.944900
  0.703000, -1.954900
  0.705000, -1.964100
  0.707000, -1.972800
  0.709000, -1.980800
  0.711000, -1.987800
  0.713000, -1.994300
  0.715000, -1.999600
  0.717000, -2.003700
  0.719000, -2.007400
  0.721000, -2.010300
  0.723000, -2.012000
  0.725000, -2.012400
  0.727000, -2.011900
  0.729000, -2.010700
  0.731000, -2.008300
  0.733000, -2.004900
  0.735000, -2.000700
  0.737000, -1.995200
  0.739000, -1.988800
  0.741000, -1.981500
  0.743000, -1.973200
  0.745000, -1.964000
  0.747000, -1.954000
  0.749000, -1.943400
  0.751000, -1.931800
  0.753000, -1.919500
  0.755000, -1.906600
  0.757000, -1.892900
  0.759000, -1.878900
  0.761000, -1.864200
  0.763000, -1.848700
  0.765000, -1.832600
  0.767000, -1.816200
  0.769000, -1.799300
  0.771000, -1.781900
  0.773000, -1.764200
  0.775000, -1.745900
  0.777000, -1.727300
  0.779000, -1.708500
  0.781000, -1.689300
  0.783000, -1.669800
  0.785000, -1.650200
  0.787000, -1.630500
  0.789000, -1.610400
  0.791000, -1.590100
  0.793000, -1.569800
  0.795000, -1.549400
  0.797000, -1.528700
  0.799000, -1.507800
  0.801000, -1.486900
  0.803000, -1.465700
  0.805000, -1.444500
  0.807000, -1.423300
  0.809000, -1.401800
  0.811000, -1.380300
  0.813000, -1.358700
  0.815000, -1.337100
  0.817000, -1.315500
  0.819000, -1.293800
  0.821000, -1.271800
  0.823000, -1.250000
  0.825000, -1.228200
  0.827000, -1.206300
  0.829000, -1.184400
  0.831000, -1.162400
  0.833000, -1.140200
  0.835000, -1.118000
  0.837000, -1.095900
  0.839000, -1.073800
  0.841000, -1.051800
  0.843000, -1.029900
  0.845000, -1.008000
  0.847000, -0.986200
  0.849000, -0.964600
  0.851000, -0.943000
  0.853000, -0.921500
  0.855000, -0.899900
  0.857000, -0.878400
  0.859000, -0.857200
  0.861000, -0.836100
  0.863000, -0.815200
  0.865000, -0.794600
  0.867000, -0.774100
  0.869000, -0.753700
  0.871000, -0.733600
  0.873000, -0.713600
  0.875000, -0.693700
  0.877000, -0.674100
  0.879000, -0.654800
  0.881000, -0.636100
  0.883000, -0.617700
  0.885000, -0.599600
  0.887000, -0.581800
  0.889000, -0.564600
  0.891000, -0.547800
  0.893000, -0.531200
  0.895000, -0.515200
  0.897000, -0.499500
  0.899000, -0.484200
  0.901000, -0.469300
  0.903000, -0.454800
  0.905000, -0.440700
  0.907000, -0.427200
  0.909000, -0.414200
  0.911000, -0.401600
  0.913000, -0.389300
  0.915000, -0.377500
  0.917000, -0.366300
  0.919000, -0.355500
  0.921000, -0.345000
  0.923000, -0.335000
  0.925000, -0.325400
  0.927000, -0.316400
  0.929000, -0.308000
  0.931000, -0.299800
  0.933000, -0.292100
  0.935000, -0.284700
  0.937000, -0.277700
  0.939000, -0.271100
  0.941000, -0.265000
  0.943000, -0.259300
  0.945000, -0.253900
  0.947000, -0.248800
  0.949000, -0.244000
  0.951000, -0.239900
  0.953000, -0.236100
  0.955000, -0.232500
  0.957000, -0.229300
  0.959000, -0.226300
  0.961000, -0.223400
  0.963000, -0.220800
  0.965000, -0.218600
  0.967000, -0.216400
  0.969000, -0.214700
  0.971000, -0.213300
  0.973000, -0.212000
  0.975000, -0.210800
  0.977000, -0.209900
  0.979000, -0.209100
  0.981000, -0.208400
  0.983000, -0.207700
  0.985000, -0.207200
  0.987000, -0.206800
  0.989000, -0.206600
  0.991000, -0.206600
  0.993000, -0.206600
  0.995000, -0.206500
  0.997000, -0.206600
  0.999000, -0.206800
  1.001000, -0.206900
  1.003000, -0.207000
  1.005000, -0.207100
  1.007000, -0.207000
  1.009000, -0.207000
  1.011000, -0.207200
  1.013000, -0.207200
  1.015000, -0.207300
  1.017000, -0.207500
  1.019000, -0.207400
  1.021000, -0.207200
  1.023000, -0.206900
  1.025000, -0.206600
  1.027000, -0.206200
  1.029000, -0.205600
  1.031000, -0.205100
  1.033000, -0.204600
  1.035000, -0.203700
  1.037000, -0.202600
  1.039000, -0.201500
  1.041000, -0.200300
  1.043000, -0.198900
  1.045000, -0.197700
  1.047000, -0.196400
  1.049000, -0.195000
  1.051000, -0.193500
  1.053000, -0.192000
  1.055000, -0.190400
  1.057000, -0.188600
  1.059000, -0.186700
  1.061000, -0.185000
  1.063000, -0.183400
  1.065000, -0.181700
  1.067000, -0.179900
  1.069000, -0.178000
  1.071000, -0.176100
  1.073000, -0.174300
  1.075000, -0.172400
  1.077000, -0.170700
  1.079000, -0.168700
  1.081000, -0.166700
  1.083000, -0.164900
  1.085000, -0.163000
  1.087000, -0.161100
  1.089000, -0.159300
  1.091000, -0.157400
  1.093000, -0.155400
  1.095000, -0.153400
  1.097000, -0.151400
  1.099000, -0.149500
  1.101000, -0.147700
  1.103000, -0.145900
  1.105000, -0.144100
  1.107000, -0.142400
  1.109000, -0.140800
  1.111000, -0.139100
  1.113000, -0.137400
  1.115000, -0.135700
  1.117000, -0.134100
  1.119000, -0.132400
  1.121000, -0.130900
  1.123000, -0.129300
  1.125000, -0.127800
  1.127000, -0.126200
  1.129000, -0.124600
  1.131000, -0.123100
  1.133000, -0.121600
  1.135000, -0.120300
  1.137000, -0.118800
  1.139000, -0.117200
  1.141000, -0.115600
  1.143000, -0.114000
  1.145000, -0.112400
  1.147000, -0.110700
  1.149000, -0.109100
  1.151000, -0.107500
  1.153000, -0.105800
  1.155000, -0.104000
  1.157000, -0.102300
  1.159000, -0.100400
  1.161000, -0.098500
  1.163000, -0.096600
  1.165000, -0.094600
  1.167000, -0.092700
  1.169000, -0.090600
  1.171000, -0.088600
  1.173000, -0.086600
  1.175000, -0.084500
  1.177000, -0.082300
  1.179000, -0.080200
  1.181000, -0.078000
  1.183000, -0.075800
  1.185000, -0.073600
  1.187000, -0.071300
  1.189000, -0.069000
  1.191000, -0.066700
  1.193000, -0.064500
  1.195000, -0.062100
  1.197000, -0.059800
  1.199000, -0.057500
  1.201000, -0.055100
  1.203000, -0.052800
  1.205000, -0.050600
  1.207000, -0.048300
  1.209000, -0.046100
  1.211000, -0.044000
  1.213000, -0.041800
  1.215000, -0.039700
  1.217000, -0.037500
  1.219000, -0.035400
  1.221000, -0.033400
  1.223000, -0.031500
  1.225000, -0.029700
  1.227000, -0.028100
  1.229000, -0.026600
  1.231000, -0.025100
  1.233000, -0.023700
  1.235000, -0.022500
  1.237000, -0.021400
  1.239000, -0.020400
  1.241000, -0.019400
  1.243000, -0.018500
  1.245000, -0.017800
  1.247000, -0.017200
  1.249000, -0.016800
  1.251000, -0.016400
  1.253000, -0.016000
  1.255000, -0.015700
  1.257000, -0.015600
  1.259000, -0.015700
  1.261000, -0.015800
  1.263000, -0.016100
  1.265000, -0.016400
  1.267000, -0.016800
  1.269000, -0.017300
  1.271000, -0.018000
  1.273000, -0.018600
  1.275000, -0.019200
  1.277000, -0.020000
  1.279000, -0.021000
  1.281000, -0.021800
  1.283000, -0.022800
  1.285000, -0.023900
  1.287000, -0.025000
  1.289000, -0.026000
  1.291000, -0.027000
  1.293000, -0.027900
  1.295000, -0.028700
  1.297000, -0.029500
  1.299000, -0.030300
  1.301000, -0.031000
  1.303000, -0.031600
  1.305000, -0.032100
  1.307000, -0.032300
  1.309000, -0.032400
  1.311000, -0.032300
  1.313000, -0.032100
  1.315000, -0.031800
  1.317000, -0.031300
  1.319000, -0.030600
  1.321000, -0.029700
  1.323000, -0.028600
  1.325000, -0.027400
  1.327000, -0.025900
  1.329000, -0.024000
  1.331000, -0.021900
  1.333000, -0.019500
  1.335000, -0.016900
  1.337000, -0.014100
  1.339000, -0.011100
  1.341000, -0.007800
  1.343000, -0.004100
  1.345000, -0.000200
  1.347000,  0.003700
  1.349000,  0.007900
  1.351000,  0.012400
  1.353000,  0.017300
  1.355000,  0.022300
  1.357000,  0.027600
  1.359000,  0.033200
  1.361000,  0.038900
  1.363000,  0.044500
  1.365000,  0.050300
  1.367000,  0.056100
  1.369000,  0.062000
  1.371000,  0.068000
  1.373000,  0.073800
  1.375000,  0.079600
  1.377000,  0.085700
  1.379000,  0.091700
  1.381000,  0.097300
  1.383000,  0.102800
  1.385000,  0.108300
  1.387000,  0.113700
  1.389000,  0.118700
  1.391000,  0.123500
  1.393000,  0.127800
  1.395000,  0.131700
  1.397000,  0.135200
  1.399000,  0.138200
