# z (nm)   (kJ/mol)
  0.285000,  2.636000
  0.287000,  2.023400
  0.289000,  1.409900
  0.291000,  0.804700
  0.293000,  0.182700
  0.295000, -0.468200
  0.297000, -1.107500
  0.299000, -1.728900
  0.301000, -2.354200
  0.303000, -2.979900
  0.305000, -3.605900
  0.307000, -4.222400
  0.309000, -4.828500
  0.311000, -5.433300
  0.313000, -6.030100
  0.315000, -6.615300
  0.317000, -7.192600
  0.319000, -7.760000
  0.321000, -8.311600
  0.323000, -8.850200
  0.325000, -9.376000
  0.327000, -9.890300
  0.329000,-10.387700
  0.331000,-10.866600
  0.333000,-11.336000
  0.335000,-11.792200
  0.337000,-12.227400
  0.339000,-12.645200
  0.341000,-13.050300
  0.343000,-13.438000
  0.345000,-13.807000
  0.347000,-14.160800
  0.349000,-14.496600
  0.351000,-14.814300
  0.353000,-15.115300
  0.355000,-15.397900
  0.357000,-15.662600
  0.359000,-15.909700
  0.361000,-16.138700
  0.363000,-16.351200
  0.365000,-16.547100
  0.367000,-16.725500
  0.369000,-16.887400
  0.371000,-17.032100
  0.373000,-17.160700
  0.375000,-17.273700
  0.377000,-17.370100
  0.379000,-17.450700
  0.381000,-17.516000
  0.383000,-17.567500
  0.385000,-17.605400
  0.387000,-17.628600
  0.389000,-17.637500
  0.391000,-17.634000
  0.393000,-17.619100
  0.395000,-17.592000
  0.397000,-17.553000
  0.399000,-17.503700
  0.401000,-17.444800
  0.403000,-17.377400
  0.405000,-17.301200
  0.407000,-17.216400
  0.409000,-17.123600
  0.411000,-17.023100
  0.413000,-16.916400
  0.415000,-16.803800
  0.417000,-16.685800
  0.419000,-16.562300
  0.421000,-16.433300
  0.423000,-16.299700
  0.425000,-16.162700
  0.427000,-16.022300
  0.429000,-15.878200
  0.431000,-15.731500
  0.433000,-15.581600
  0.435000,-15.429100
  0.437000,-15.275600
  0.439000,-15.120000
  0.441000,-14.962100
  0.443000,-14.802900
  0.445000,-14.642600
  0.447000,-14.481600
  0.449000,-14.320200
  0.451000,-14.158000
  0.453000,-13.995500
  0.455000,-13.832300
  0.457000,-13.668800
  0.459000,-13.505300
  0.461000,-13.342100
  0.463000,-13.179500
  0.465000,-13.016700
  0.467000,-12.853500
  0.469000,-12.691200
  0.471000,-12.529500
  0.473000,-12.367300
  0.475000,-12.205600
  0.477000,-12.044200
  0.479000,-11.883900
  0.481000,-11.724500
  0.483000,-11.565200
  0.485000,-11.405700
  0.487000,-11.246700
  0.489000,-11.088600
  0.491000,-10.931200
  0.493000,-10.774300
  0.495000,-10.617200
  0.497000,-10.460600
  0.499000,-10.304500
  0.501000,-10.149000
  0.503000, -9.994300
  0.505000, -9.839800
  0.507000, -9.685500
  0.509000, -9.531600
  0.511000, -9.377900
  0.513000, -9.224200
  0.515000, -9.070500
  0.517000, -8.917200
  0.519000, -8.763900
  0.521000, -8.610500
  0.523000, -8.457000
  0.525000, -8.303400
  0.527000, -8.149800
  0.529000, -7.996200
  0.531000, -7.842500
  0.533000, -7.688400
  0.535000, -7.534200
  0.537000, -7.379700
  0.539000, -7.224900
  0.541000, -7.069900
  0.543000, -6.914900
  0.545000, -6.759400
  0.547000, -6.603700
  0.549000, -6.447800
  0.551000, -6.291500
  0.553000, -6.134900
  0.555000, -5.978200
  0.557000, -5.821500
  0.559000, -5.664600
  0.561000, -5.507700
  0.563000, -5.350400
  0.565000, -5.193100
  0.567000, -5.036400
  0.569000, -4.880100
  0.571000, -4.724100
  0.573000, -4.568300
  0.575000, -4.412800
  0.577000, -4.258200
  0.579000, -4.104500
  0.581000, -3.951200
  0.583000, -3.798500
  0.585000, -3.647200
  0.587000, -3.497200
  0.589000, -3.347700
  0.591000, -3.199800
  0.593000, -3.054600
  0.595000, -2.910500
  0.597000, -2.767100
  0.599000, -2.626300
  0.601000, -2.487400
  0.603000, -2.350400
  0.605000, -2.216200
  0.607000, -2.083700
  0.609000, -1.953200
  0.611000, -1.826000
  0.613000, -1.701600
  0.615000, -1.579800
  0.617000, -1.461600
  0.619000, -1.346200
  0.621000, -1.233600
  0.623000, -1.124400
  0.625000, -1.017900
  0.627000, -0.915200
  0.629000, -0.816300
  0.631000, -0.720800
  0.633000, -0.628900
  0.635000, -0.540200
  0.637000, -0.455400
  0.639000, -0.374600
  0.641000, -0.297200
  0.643000, -0.223400
  0.645000, -0.153900
  0.647000, -0.088500
  0.649000, -0.026500
  0.651000,  0.032100
  0.653000,  0.086600
  0.655000,  0.137400
  0.657000,  0.184500
  0.659000,  0.227900
  0.661000,  0.267600
  0.663000,  0.303600
  0.665000,  0.336000
  0.667000,  0.365000
  0.669000,  0.390700
  0.671000,  0.412800
  0.673000,  0.431700
  0.675000,  0.447700
  0.677000,  0.460500
  0.679000,  0.470200
  0.681000,  0.477000
  0.683000,  0.480900
  0.685000,  0.482400
  0.687000,  0.481300
  0.689000,  0.477900
  0.691000,  0.472300
  0.693000,  0.464300
  0.695000,  0.454200
  0.697000,  0.442000
  0.699000,  0.427700
  0.701000,  0.412300
  0.703000,  0.395400
  0.705000,  0.376900
  0.707000,  0.357300
  0.709000,  0.336600
  0.711000,  0.315300
  0.713000,  0.293100
  0.715000,  0.269800
  0.717000,  0.245600
  0.719000,  0.220900
  0.721000,  0.195700
  0.723000,  0.170200
  0.725000,  0.144700
  0.727000,  0.118900
  0.729000,  0.092900
  0.731000,  0.067000
  0.733000,  0.041000
  0.735000,  0.015200
  0.737000, -0.010600
  0.739000, -0.035900
  0.741000, -0.061000
  0.743000, -0.085600
  0.745000, -0.109600
  0.747000, -0.133100
  0.749000, -0.155800
  0.751000, -0.178000
  0.753000, -0.199500
  0.755000, -0.220300
  0.757000, -0.240700
  0.759000, -0.260200
  0.761000, -0.278800
  0.763000, -0.296600
  0.765000, -0.313600
  0.767000, -0.330100
  0.769000, -0.345900
  0.771000, -0.360700
  0.773000, -0.374700
  0.775000, -0.388100
  0.777000, -0.400700
  0.779000, -0.412400
  0.781000, -0.423300
  0.783000, -0.433400
  0.785000, -0.442700
  0.787000, -0.451300
  0.789000, -0.459200
  0.791000, -0.466400
  0.793000, -0.472900
  0.795000, -0.478600
  0.797000, -0.483700
  0.799000, -0.488200
  0.801000, -0.492000
  0.803000, -0.495200
  0.805000, -0.497500
  0.807000, -0.499000
  0.809000, -0.500100
  0.811000, -0.500800
  0.813000, -0.500700
  0.815000, -0.500000
  0.817000, -0.498700
  0.819000, -0.496900
  0.821000, -0.494400
  0.823000, -0.491500
  0.825000, -0.488000
  0.827000, -0.484100
  0.829000, -0.479800
  0.831000, -0.475000
  0.833000, -0.469600
  0.835000, -0.463700
  0.837000, -0.457500
  0.839000, -0.450700
  0.841000, -0.443500
  0.843000, -0.435900
  0.845000, -0.428000
  0.847000, -0.419600
  0.849000, -0.410900
  0.851000, -0.401800
  0.853000, -0.392500
  0.855000, -0.382700
  0.857000, -0.372600
  0.859000, -0.362300
  0.861000, -0.351800
  0.863000, -0.341100
  0.865000, -0.330100
  0.867000, -0.318800
  0.869000, -0.307400
  0.871000, -0.295800
  0.873000, -0.284000
  0.875000, -0.272200
  0.877000, -0.260300
  0.879000, -0.248200
  0.881000, -0.235900
  0.883000, -0.223600
  0.885000, -0.211400
  0.887000, -0.199200
  0.889000, -0.187100
  0.891000, -0.174900
  0.893000, -0.162700
  0.895000, -0.150700
  0.897000, -0.138800
  0.899000, -0.126900
  0.901000, -0.115100
  0.903000, -0.103600
  0.905000, -0.092200
  0.907000, -0.081100
  0.909000, -0.070300
  0.911000, -0.059700
  0.913000, -0.049300
  0.915000, -0.039200
  0.917000, -0.029500
  0.919000, -0.020000
  0.921000, -0.010700
  0.923000, -0.001600
  0.925000,  0.007000
  0.927000,  0.015100
  0.929000,  0.023000
  0.931000,  0.030500
  0.933000,  0.037700
  0.935000,  0.044500
  0.937000,  0.050900
  0.939000,  0.056900
  0.941000,  0.062600
  0.943000,  0.067800
  0.945000,  0.072600
  0.947000,  0.076900
  0.949000,  0.081000
  0.951000,  0.084500
  0.953000,  0.087700
  0.955000,  0.090400
  0.957000,  0.092700
  0.959000,  0.094500
  0.961000,  0.095900
  0.963000,  0.097000
  0.965000,  0.097700
  0.967000,  0.098000
  0.969000,  0.097800
  0.971000,  0.097200
  0.973000,  0.096400
  0.975000,  0.095300
  0.977000,  0.093800
  0.979000,  0.092200
  0.981000,  0.090200
  0.983000,  0.087700
  0.985000,  0.084900
  0.987000,  0.081900
  0.989000,  0.078700
  0.991000,  0.075200
  0.993000,  0.071400
  0.995000,  0.067400
  0.997000,  0.063100
  0.999000,  0.058500
  1.001000,  0.053900
  1.003000,  0.049200
  1.005000,  0.044400
  1.007000,  0.039400
  1.009000,  0.034200
  1.011000,  0.028800
  1.013000,  0.023400
  1.015000,  0.017900
  1.017000,  0.012200
  1.019000,  0.006700
  1.021000,  0.001200
  1.023000, -0.004300
  1.025000, -0.009800
  1.027000, -0.015600
  1.029000, -0.021400
  1.031000, -0.027300
  1.033000, -0.033200
  1.035000, -0.038900
  1.037000, -0.044500
  1.039000, -0.049900
  1.041000, -0.055300
  1.043000, -0.060700
  1.045000, -0.066000
  1.047000, -0.071100
  1.049000, -0.076200
  1.051000, -0.081000
  1.053000, -0.085600
  1.055000, -0.090300
  1.057000, -0.094900
  1.059000, -0.099300
  1.061000, -0.103500
  1.063000, -0.107600
  1.065000, -0.111500
  1.067000, -0.115100
  1.069000, -0.118500
  1.071000, -0.121600
  1.073000, -0.124700
  1.075000, -0.127600
  1.077000, -0.130400
  1.079000, -0.133000
  1.081000, -0.135200
  1.083000, -0.137400
  1.085000, -0.139500
  1.087000, -0.141400
  1.089000, -0.143100
  1.091000, -0.144500
  1.093000, -0.145800
  1.095000, -0.146900
  1.097000, -0.147800
  1.099000, -0.148600
  1.101000, -0.149300
  1.103000, -0.149900
  1.105000, -0.150300
  1.107000, -0.150700
  1.109000, -0.150900
  1.111000, -0.150900
  1.113000, -0.150800
  1.115000, -0.150600
  1.117000, -0.150300
  1.119000, -0.149900
  1.121000, -0.149500
  1.123000, -0.149000
  1.125000, -0.148400
  1.127000, -0.147800
  1.129000, -0.147200
  1.131000, -0.146400
  1.133000, -0.145500
  1.135000, -0.144700
  1.137000, -0.143800
  1.139000, -0.142800
  1.141000, -0.141800
  1.143000, -0.140700
  1.145000, -0.139500
  1.147000, -0.138400
  1.149000, -0.137200
  1.151000, -0.136000
  1.153000, -0.134900
  1.155000, -0.133600
  1.157000, -0.132300
  1.159000, -0.131000
  1.161000, -0.129600
  1.163000, -0.128300
  1.165000, -0.126800
  1.167000, -0.125300
  1.169000, -0.123800
  1.171000, -0.122300
  1.173000, -0.120600
  1.175000, -0.119000
  1.177000, -0.117400
  1.179000, -0.115700
  1.181000, -0.113900
  1.183000, -0.112100
  1.185000, -0.110200
  1.187000, -0.108200
  1.189000, -0.106300
  1.191000, -0.104400
  1.193000, -0.102400
  1.195000, -0.100300
  1.197000, -0.098100
  1.199000, -0.095800
  1.201000, -0.093600
  1.203000, -0.091300
  1.205000, -0.089000
  1.207000, -0.086500
  1.209000, -0.084100
  1.211000, -0.081600
  1.213000, -0.079100
  1.215000, -0.076500
  1.217000, -0.073800
  1.219000, -0.071100
  1.221000, -0.068400
  1.223000, -0.065600
  1.225000, -0.062800
  1.227000, -0.060000
  1.229000, -0.057300
  1.231000, -0.054500
  1.233000, -0.051800
  1.235000, -0.049100
  1.237000, -0.046300
  1.239000, -0.043600
  1.241000, -0.040900
  1.243000, -0.038200
  1.245000, -0.035400
  1.247000, -0.032700
  1.249000, -0.030100
  1.251000, -0.027500
  1.253000, -0.024900
  1.255000, -0.022300
  1.257000, -0.019700
  1.259000, -0.017200
  1.261000, -0.014800
  1.263000, -0.012300
  1.265000, -0.009800
  1.267000, -0.007500
  1.269000, -0.005200
  1.271000, -0.002900
  1.273000, -0.000800
  1.275000,  0.001200
  1.277000,  0.003100
  1.279000,  0.004900
  1.281000,  0.006900
  1.283000,  0.008700
  1.285000,  0.010400
  1.287000,  0.012000
  1.289000,  0.013500
  1.291000,  0.015000
  1.293000,  0.016500
  1.295000,  0.017900
  1.297000,  0.019100
  1.299000,  0.020300
  1.301000,  0.021400
  1.303000,  0.022400
  1.305000,  0.023400
  1.307000,  0.024400
  1.309000,  0.025200
  1.311000,  0.025800
  1.313000,  0.026400
  1.315000,  0.027000
  1.317000,  0.027600
  1.319000,  0.028200
  1.321000,  0.028600
  1.323000,  0.029000
  1.325000,  0.029300
  1.327000,  0.029600
  1.329000,  0.029800
  1.331000,  0.030100
  1.333000,  0.030400
  1.335000,  0.030800
  1.337000,  0.031200
  1.339000,  0.031600
  1.341000,  0.031900
  1.343000,  0.032100
  1.345000,  0.032400
  1.347000,  0.032900
  1.349000,  0.033400
  1.351000,  0.033900
  1.353000,  0.034300
  1.355000,  0.034800
  1.357000,  0.035200
  1.359000,  0.035800
  1.361000,  0.036300
  1.363000,  0.036800
  1.365000,  0.037100
  1.367000,  0.037500
  1.369000,  0.038000
  1.371000,  0.038400
  1.373000,  0.038900
  1.375000,  0.039300
  1.377000,  0.039700
  1.379000,  0.040000
  1.381000,  0.040100
  1.383000,  0.039900
  1.385000,  0.039500
  1.387000,  0.039000
  1.389000,  0.038400
  1.391000,  0.037700
  1.393000,  0.036500
  1.395000,  0.034900
  1.397000,  0.033000
  1.399000,  0.030700
