# z (nm)   (kJ/mol)
  0.0840  257.77141
  0.0860  253.69271
  0.0880  251.22536
  0.0900  248.66041
  0.0920  246.06957
  0.0940  243.49902
  0.0960  240.92831
  0.0980  238.26400
  0.1000  235.57157
  0.1020  232.82444
  0.1040  229.98023
  0.1060  227.05536
  0.1080  224.02453
  0.1100  220.87240
  0.1120  217.59259
  0.1140  214.17583
  0.1160  210.61839
  0.1180  206.90938
  0.1200  203.06636
  0.1220  199.08132
  0.1240  194.97378
  0.1260  190.75868
  0.1280  186.45494
  0.1300  182.09513
  0.1320  177.70352
  0.1340  173.30276
  0.1360  168.91247
  0.1380  164.54005
  0.1400  160.19060
  0.1420  155.86767
  0.1440  151.58055
  0.1460  147.34349
  0.1480  143.18580
  0.1500  139.15814
  0.1520  135.30121
  0.1540  131.63787
  0.1560  128.16582
  0.1580  124.84456
  0.1600  121.62861
  0.1620  118.46799
  0.1640  115.32724
  0.1660  112.17721
  0.1680  108.99899
  0.1700  105.77540
  0.1720  102.50347
  0.1740   99.18438
  0.1760   95.82570
  0.1780   92.44987
  0.1800   89.09820
  0.1820   85.80046
  0.1840   82.59452
  0.1860   79.51155
  0.1880   76.55218
  0.1900   73.71040
  0.1920   70.96614
  0.1940   68.27725
  0.1960   65.61994
  0.1980   62.96270
  0.2000   60.29146
  0.2020   57.61378
  0.2040   54.94109
  0.2060   52.28519
  0.2080   49.66990
  0.2100   47.12969
  0.2120   44.68850
  0.2140   42.35467
  0.2160   40.11471
  0.2180   37.92964
  0.2200   35.75949
  0.2220   33.56666
  0.2240   31.37517
  0.2260   29.22139
  0.2280   27.14598
  0.2300   25.17625
  0.2320   23.31848
  0.2340   21.54339
  0.2360   19.81549
  0.2380   18.09294
  0.2400   16.35640
  0.2420   14.60781
  0.2440   12.86688
  0.2460   11.16889
  0.2480    9.54624
  0.2500    8.01352
  0.2520    6.56734
  0.2540    5.19272
  0.2560    3.86334
  0.2580    2.57060
  0.2600    1.30115
  0.2620    0.05206
  0.2640   -1.16363
  0.2660   -2.33202
  0.2680   -3.45353
  0.2700   -4.51472
  0.2720   -5.52480
  0.2740   -6.49351
  0.2760   -7.42602
  0.2780   -8.32024
  0.2800   -9.17592
  0.2820   -9.99743
  0.2840  -10.76493
  0.2860  -11.47938
  0.2880  -12.15325
  0.2900  -12.77720
  0.2920  -13.35474
  0.2940  -13.90089
  0.2960  -14.41478
  0.2980  -14.90500
  0.3000  -15.36522
  0.3020  -15.80601
  0.3040  -16.20442
  0.3060  -16.55816
  0.3080  -16.85346
  0.3100  -17.10565
  0.3120  -17.29948
  0.3140  -17.45097
  0.3160  -17.56540
  0.3180  -17.64524
  0.3200  -17.70008
  0.3220  -17.74499
  0.3240  -17.77600
  0.3260  -17.79126
  0.3280  -17.80116
  0.3300  -17.79954
  0.3320  -17.77915
  0.3340  -17.72234
  0.3360  -17.63017
  0.3380  -17.49731
  0.3400  -17.32048
  0.3420  -17.10499
  0.3440  -16.86189
  0.3460  -16.60976
  0.3480  -16.36232
  0.3500  -16.13876
  0.3520  -15.94233
  0.3540  -15.76083
  0.3560  -15.57253
  0.3580  -15.34820
  0.3600  -15.07359
  0.3620  -14.74086
  0.3640  -14.35479
  0.3660  -13.95045
  0.3680  -13.56262
  0.3700  -13.19819
  0.3720  -12.89599
  0.3740  -12.63547
  0.3760  -12.40058
  0.3780  -12.18198
  0.3800  -11.95625
  0.3820  -11.71396
  0.3840  -11.45876
  0.3860  -11.19854
  0.3880  -10.94154
  0.3900  -10.70589
  0.3920  -10.49411
  0.3940  -10.30586
  0.3960  -10.14962
  0.3980  -10.02236
  0.4000   -9.90181
  0.4020   -9.77666
  0.4040   -9.64983
  0.4060   -9.51754
  0.4080   -9.37691
  0.4100   -9.24142
  0.4120   -9.11858
  0.4140   -9.00987
  0.4160   -8.91487
  0.4180   -8.83623
  0.4200   -8.77213
  0.4220   -8.71026
  0.4240   -8.65525
  0.4260   -8.59936
  0.4280   -8.53843
  0.4300   -8.47224
  0.4320   -8.41470
  0.4340   -8.35069
  0.4360   -8.29118
  0.4380   -8.22461
  0.4400   -8.15562
  0.4420   -8.07719
  0.4440   -7.99855
  0.4460   -7.91641
  0.4480   -7.83765
  0.4500   -7.76364
  0.4520   -7.69564
  0.4540   -7.64713
  0.4560   -7.60652
  0.4580   -7.57392
  0.4600   -7.54808
  0.4620   -7.52150
  0.4640   -7.47760
  0.4660   -7.42542
  0.4680   -7.34285
  0.4700   -7.23593
  0.4720   -7.12288
  0.4740   -7.00014
  0.4760   -6.88295
  0.4780   -6.77872
  0.4800   -6.67656
  0.4820   -6.57114
  0.4840   -6.45565
  0.4860   -6.33548
  0.4880   -6.20478
  0.4900   -6.07065
  0.4920   -5.93711
  0.4940   -5.81111
  0.4960   -5.68859
  0.4980   -5.57563
  0.5000   -5.46700
  0.5020   -5.35859
  0.5040   -5.25312
  0.5060   -5.13905
  0.5080   -5.03426
  0.5100   -4.92344
  0.5120   -4.80396
  0.5140   -4.67689
  0.5160   -4.53074
  0.5180   -4.36964
  0.5200   -4.19533
  0.5220   -4.01036
  0.5240   -3.83032
  0.5260   -3.67613
  0.5280   -3.55474
  0.5300   -3.48257
  0.5320   -3.44049
  0.5340   -3.41881
  0.5360   -3.39792
  0.5380   -3.36448
  0.5400   -3.30995
  0.5420   -3.22505
  0.5440   -3.12639
  0.5460   -3.00449
  0.5480   -2.87773
  0.5500   -2.74933
  0.5520   -2.62688
  0.5540   -2.51472
  0.5560   -2.42380
  0.5580   -2.35576
  0.5600   -2.31434
  0.5620   -2.29667
  0.5640   -2.28933
  0.5660   -2.29575
  0.5680   -2.30303
  0.5700   -2.30795
  0.5720   -2.29969
  0.5740   -2.26197
  0.5760   -2.20397
  0.5780   -2.13122
  0.5800   -2.04230
  0.5820   -1.95385
  0.5840   -1.87012
  0.5860   -1.79874
  0.5880   -1.74406
  0.5900   -1.70812
  0.5920   -1.68719
  0.5940   -1.68129
  0.5960   -1.68302
  0.5980   -1.69414
  0.6000   -1.70479
  0.6020   -1.71525
  0.6040   -1.72833
  0.6060   -1.72478
  0.6080   -1.70982
  0.6100   -1.67934
  0.6120   -1.63623
  0.6140   -1.59271
  0.6160   -1.54520
  0.6180   -1.49698
  0.6200   -1.44352
  0.6220   -1.38991
  0.6240   -1.33728
  0.6260   -1.27159
  0.6280   -1.20202
  0.6300   -1.12581
  0.6320   -1.04035
  0.6340   -0.95409
  0.6360   -0.86188
  0.6380   -0.77915
  0.6400   -0.70683
  0.6420   -0.64946
  0.6440   -0.60542
  0.6460   -0.57254
  0.6480   -0.54727
  0.6500   -0.52277
  0.6520   -0.49645
  0.6540   -0.47089
  0.6560   -0.42830
  0.6580   -0.38511
  0.6600   -0.33896
  0.6620   -0.29073
  0.6640   -0.23721
  0.6660   -0.18951
  0.6680   -0.13711
  0.6700   -0.07892
  0.6720   -0.02534
  0.6740    0.01848
  0.6760    0.05457
  0.6780    0.07990
  0.6800    0.08531
  0.6820    0.08536
  0.6840    0.07286
  0.6860    0.05651
  0.6880    0.03927
  0.6900    0.02259
  0.6920    0.01007
  0.6940    0.00024
  0.6960   -0.01978
  0.6980   -0.03396
  0.7000   -0.04792
  0.7020   -0.06011
  0.7040   -0.06226
  0.7060   -0.05252
  0.7080   -0.03012
  0.7100   -0.01464
  0.7120   -0.00944
  0.7140   -0.00233
  0.7160   -0.01782
  0.7180   -0.04992
  0.7200   -0.09949
  0.7220   -0.15177
  0.7240   -0.20425
  0.7260   -0.25821
  0.7280   -0.31110
  0.7300   -0.35733
  0.7320   -0.39797
  0.7340   -0.42809
  0.7360   -0.45162
  0.7380   -0.47230
  0.7400   -0.49217
  0.7420   -0.50939
  0.7440   -0.51502
  0.7460   -0.53106
  0.7480   -0.54508
  0.7500   -0.55580
  0.7520   -0.56663
  0.7540   -0.58814
  0.7560   -0.60234
  0.7580   -0.61778
  0.7600   -0.62156
  0.7620   -0.62890
  0.7640   -0.63273
  0.7660   -0.63706
  0.7680   -0.63774
  0.7700   -0.63352
  0.7720   -0.62939
  0.7740   -0.62186
  0.7760   -0.60702
  0.7780   -0.59160
  0.7800   -0.57096
  0.7820   -0.55214
  0.7840   -0.52867
  0.7860   -0.51313
  0.7880   -0.49700
  0.7900   -0.47810
  0.7920   -0.46057
  0.7940   -0.43948
  0.7960   -0.42176
  0.7980   -0.40339
  0.8000   -0.38387
  0.8020   -0.37500
  0.8040   -0.37012
  0.8060   -0.37782
  0.8080   -0.38312
  0.8100   -0.38678
  0.8120   -0.38238
  0.8140   -0.37467
  0.8160   -0.35121
  0.8180   -0.32211
  0.8200   -0.28811
  0.8220   -0.24336
  0.8240   -0.20036
  0.8260   -0.15802
  0.8280   -0.11357
  0.8300   -0.08734
  0.8320   -0.06880
  0.8340   -0.05700
  0.8360   -0.05360
  0.8380   -0.05005
  0.8400   -0.04958
  0.8420   -0.04844
  0.8440   -0.04723
  0.8460   -0.04215
  0.8480   -0.03486
  0.8500   -0.01975
  0.8520   -0.00164
  0.8540    0.02231
  0.8560    0.04486
  0.8580    0.07246
  0.8600    0.10194
  0.8620    0.11863
  0.8640    0.13315
  0.8660    0.15067
  0.8680    0.15408
  0.8700    0.15484
  0.8720    0.15048
  0.8740    0.14166
  0.8760    0.12365
  0.8780    0.11113
  0.8800    0.08700
  0.8820    0.06983
  0.8840    0.05281
  0.8860    0.03721
  0.8880    0.02709
  0.8900    0.02269
  0.8920    0.02477
  0.8940    0.03086
  0.8960    0.04015
  0.8980    0.05221
  0.9000    0.06091
  0.9020    0.06674
  0.9040    0.07124
  0.9060    0.07092
  0.9080    0.07346
  0.9100    0.06992
  0.9120    0.06950
  0.9140    0.06861
  0.9160    0.07556
  0.9180    0.08019
  0.9200    0.09670
  0.9220    0.10396
  0.9240    0.11202
  0.9260    0.11729
  0.9280    0.10784
  0.9300    0.09797
  0.9320    0.07516
  0.9340    0.03999
  0.9360    0.00317
  0.9380   -0.03567
  0.9400   -0.07088
  0.9420   -0.10055
  0.9440   -0.11473
  0.9460   -0.11111
  0.9480   -0.09817
  0.9500   -0.07591
  0.9520   -0.04083
  0.9540   -0.00861
  0.9560    0.03023
  0.9580    0.06089
  0.9600    0.08537
  0.9620    0.09382
  0.9640    0.08323
  0.9660    0.06513
  0.9680    0.03439
  0.9700    0.00120
  0.9720   -0.03701
  0.9740   -0.07075
  0.9760   -0.09240
  0.9780   -0.10802
  0.9800   -0.10271
  0.9820   -0.10359
  0.9840   -0.10084
  0.9860   -0.09615
  0.9880   -0.07969
  0.9900   -0.07266
  0.9920   -0.06830
  0.9940   -0.06739
  0.9960   -0.06591
  0.9980   -0.06711
  1.0000   -0.06548
