# z (nm)   (kJ/mol)
  0.062000,274.594600
  0.064000,272.188760
  0.066000,269.828650
  0.068000,267.109620
  0.070000,264.462510
  0.072000,262.032610
  0.074000,259.594510
  0.076000,257.057630
  0.078000,254.555240
  0.080000,252.034620
  0.082000,249.457930
  0.084000,246.820670
  0.086000,244.109010
  0.088000,241.322400
  0.090000,238.435270
  0.092000,235.451000
  0.094000,232.368080
  0.096000,229.179380
  0.098000,225.878130
  0.100000,222.463490
  0.102000,218.937160
  0.104000,215.298650
  0.106000,211.544630
  0.108000,207.689050
  0.110000,203.740240
  0.112000,199.717800
  0.114000,195.655220
  0.116000,191.586470
  0.118000,187.546720
  0.120000,183.567780
  0.122000,179.670990
  0.124000,175.872330
  0.126000,172.172250
  0.128000,168.561980
  0.130000,165.035200
  0.132000,161.575550
  0.134000,158.173940
  0.136000,154.820410
  0.138000,151.504020
  0.140000,148.221670
  0.142000,144.967710
  0.144000,141.737650
  0.146000,138.534300
  0.148000,135.361150
  0.150000,132.225930
  0.152000,129.130840
  0.154000,126.074210
  0.156000,123.063700
  0.158000,120.097900
  0.160000,117.167870
  0.162000,114.275510
  0.164000,111.414380
  0.166000,108.572500
  0.168000,105.747390
  0.170000,102.945400
  0.172000,100.165350
  0.174000, 97.404730
  0.176000, 94.669800
  0.178000, 91.966110
  0.180000, 89.296970
  0.182000, 86.661730
  0.184000, 84.068510
  0.186000, 81.515480
  0.188000, 78.992200
  0.190000, 76.503750
  0.192000, 74.058160
  0.194000, 71.634250
  0.196000, 69.250850
  0.198000, 66.916450
  0.200000, 64.631140
  0.202000, 62.412340
  0.204000, 60.253560
  0.206000, 58.161080
  0.208000, 56.123310
  0.210000, 54.133740
  0.212000, 52.180220
  0.214000, 50.254150
  0.216000, 48.339040
  0.218000, 46.443300
  0.220000, 44.561310
  0.222000, 42.695060
  0.224000, 40.858480
  0.226000, 39.036960
  0.228000, 37.245680
  0.230000, 35.503080
  0.232000, 33.807370
  0.234000, 32.162360
  0.236000, 30.570170
  0.238000, 29.031140
  0.240000, 27.537530
  0.242000, 26.096790
  0.244000, 24.698490
  0.246000, 23.335830
  0.248000, 22.010330
  0.250000, 20.714590
  0.252000, 19.449420
  0.254000, 18.213080
  0.256000, 17.002840
  0.258000, 15.813010
  0.260000, 14.648840
  0.262000, 13.505960
  0.264000, 12.391360
  0.266000, 11.303420
  0.268000, 10.254160
  0.270000,  9.242040
  0.272000,  8.282090
  0.274000,  7.368920
  0.276000,  6.503930
  0.278000,  5.682370
  0.280000,  4.903830
  0.282000,  4.153410
  0.284000,  3.438690
  0.286000,  2.748190
  0.288000,  2.076650
  0.290000,  1.430190
  0.292000,  0.817230
  0.294000,  0.231190
  0.296000, -0.320550
  0.298000, -0.849120
  0.300000, -1.337280
  0.302000, -1.794570
  0.304000, -2.217870
  0.306000, -2.610440
  0.308000, -2.977630
  0.310000, -3.319390
  0.312000, -3.636460
  0.314000, -3.923340
  0.316000, -4.196040
  0.318000, -4.450660
  0.320000, -4.677810
  0.322000, -4.878680
  0.324000, -5.052330
  0.326000, -5.194900
  0.328000, -5.310700
  0.330000, -5.408200
  0.332000, -5.490910
  0.334000, -5.544000
  0.336000, -5.585250
  0.338000, -5.615690
  0.340000, -5.638450
  0.342000, -5.648400
  0.344000, -5.654380
  0.346000, -5.651980
  0.348000, -5.641980
  0.350000, -5.631200
  0.352000, -5.612000
  0.354000, -5.583330
  0.356000, -5.542840
  0.358000, -5.491520
  0.360000, -5.430850
  0.362000, -5.358060
  0.364000, -5.272540
  0.366000, -5.180430
  0.368000, -5.081250
  0.370000, -4.977830
  0.372000, -4.880510
  0.374000, -4.774900
  0.376000, -4.674250
  0.378000, -4.578580
  0.380000, -4.487460
  0.382000, -4.401000
  0.384000, -4.318250
  0.386000, -4.238640
  0.388000, -4.164080
  0.390000, -4.083460
  0.392000, -4.006700
  0.394000, -3.923140
  0.396000, -3.836650
  0.398000, -3.738980
  0.400000, -3.638280
  0.402000, -3.530700
  0.404000, -3.420150
  0.406000, -3.310110
  0.408000, -3.209350
  0.410000, -3.109850
  0.412000, -3.029300
  0.414000, -2.957610
  0.416000, -2.889610
  0.418000, -2.825890
  0.420000, -2.764230
  0.422000, -2.701300
  0.424000, -2.637210
  0.426000, -2.571960
  0.428000, -2.499960
  0.430000, -2.426850
  0.432000, -2.344730
  0.434000, -2.261790
  0.436000, -2.182440
  0.438000, -2.096470
  0.440000, -1.999080
  0.442000, -1.893380
  0.444000, -1.788350
  0.446000, -1.685120
  0.448000, -1.575850
  0.450000, -1.464340
  0.452000, -1.348580
  0.454000, -1.231350
  0.456000, -1.112520
  0.458000, -0.986600
  0.460000, -0.863990
  0.462000, -0.732770
  0.464000, -0.595290
  0.466000, -0.451940
  0.468000, -0.301710
  0.470000, -0.148450
  0.472000,  0.011460
  0.474000,  0.175050
  0.476000,  0.340240
  0.478000,  0.509020
  0.480000,  0.673060
  0.482000,  0.834340
  0.484000,  0.996810
  0.486000,  1.149480
  0.488000,  1.295230
  0.490000,  1.437670
  0.492000,  1.572350
  0.494000,  1.690400
  0.496000,  1.799340
  0.498000,  1.900900
  0.500000,  1.998800
  0.502000,  2.093430
  0.504000,  2.182920
  0.506000,  2.274260
  0.508000,  2.366290
  0.510000,  2.452450
  0.512000,  2.540120
  0.514000,  2.621390
  0.516000,  2.702070
  0.518000,  2.779040
  0.520000,  2.851320
  0.522000,  2.916180
  0.524000,  2.978780
  0.526000,  3.044690
  0.528000,  3.105080
  0.530000,  3.161360
  0.532000,  3.216190
  0.534000,  3.265990
  0.536000,  3.304290
  0.538000,  3.342230
  0.540000,  3.375490
  0.542000,  3.396540
  0.544000,  3.414110
  0.546000,  3.416230
  0.548000,  3.410310
  0.550000,  3.395670
  0.552000,  3.374250
  0.554000,  3.353190
  0.556000,  3.316860
  0.558000,  3.276460
  0.560000,  3.228210
  0.562000,  3.173780
  0.564000,  3.102450
  0.566000,  3.025100
  0.568000,  2.941100
  0.570000,  2.848280
  0.572000,  2.749380
  0.574000,  2.652590
  0.576000,  2.551640
  0.578000,  2.447920
  0.580000,  2.349030
  0.582000,  2.250110
  0.584000,  2.152900
  0.586000,  2.050130
  0.588000,  1.951360
  0.590000,  1.847900
  0.592000,  1.751550
  0.594000,  1.656210
  0.596000,  1.557900
  0.598000,  1.459290
  0.600000,  1.365410
  0.602000,  1.276300
  0.604000,  1.190010
  0.606000,  1.111540
  0.608000,  1.034910
  0.610000,  0.970230
  0.612000,  0.906690
  0.614000,  0.848900
  0.616000,  0.790420
  0.618000,  0.733440
  0.620000,  0.674850
  0.622000,  0.616350
  0.624000,  0.561880
  0.626000,  0.502290
  0.628000,  0.444850
  0.630000,  0.386700
  0.632000,  0.329150
  0.634000,  0.273280
  0.636000,  0.219450
  0.638000,  0.173350
  0.640000,  0.133930
  0.642000,  0.097390
  0.644000,  0.070390
  0.646000,  0.040020
  0.648000,  0.020590
  0.650000,  0.001050
  0.652000, -0.010360
  0.654000, -0.025220
  0.656000, -0.039340
  0.658000, -0.051890
  0.660000, -0.066000
  0.662000, -0.076690
  0.664000, -0.091710
  0.666000, -0.110560
  0.668000, -0.120710
  0.670000, -0.141330
  0.672000, -0.153250
  0.674000, -0.163240
  0.676000, -0.171510
  0.678000, -0.172060
  0.680000, -0.169910
  0.682000, -0.165990
  0.684000, -0.160230
  0.686000, -0.147150
  0.688000, -0.137950
  0.690000, -0.124630
  0.692000, -0.119370
  0.694000, -0.111830
  0.696000, -0.103640
  0.698000, -0.102480
  0.700000, -0.098030
  0.702000, -0.088820
  0.704000, -0.082120
  0.706000, -0.075030
  0.708000, -0.064080
  0.710000, -0.050500
  0.712000, -0.036440
  0.714000, -0.020290
  0.716000, -0.006890
  0.718000,  0.013070
  0.720000,  0.028670
  0.722000,  0.040770
  0.724000,  0.053090
  0.726000,  0.069540
  0.728000,  0.085170
  0.730000,  0.101070
  0.732000,  0.113210
  0.734000,  0.124770
  0.736000,  0.133720
  0.738000,  0.144650
  0.740000,  0.150470
  0.742000,  0.156380
  0.744000,  0.165490
  0.746000,  0.180840
  0.748000,  0.193680
  0.750000,  0.208970
  0.752000,  0.231940
  0.754000,  0.256160
  0.756000,  0.282880
  0.758000,  0.317830
  0.760000,  0.359310
  0.762000,  0.395060
  0.764000,  0.430210
  0.766000,  0.465140
  0.768000,  0.496390
  0.770000,  0.526470
  0.772000,  0.554200
  0.774000,  0.577780
  0.776000,  0.599630
  0.778000,  0.614490
  0.780000,  0.629190
  0.782000,  0.642130
  0.784000,  0.658870
  0.786000,  0.671420
  0.788000,  0.679370
  0.790000,  0.692260
  0.792000,  0.709680
  0.794000,  0.717530
  0.796000,  0.726500
  0.798000,  0.723340
  0.800000,  0.728170
  0.802000,  0.723140
  0.804000,  0.723190
  0.806000,  0.719430
  0.808000,  0.712790
  0.810000,  0.708900
  0.812000,  0.702030
  0.814000,  0.701490
  0.816000,  0.694980
  0.818000,  0.692680
  0.820000,  0.691470
  0.822000,  0.696340
  0.824000,  0.701950
  0.826000,  0.713910
  0.828000,  0.729470
  0.830000,  0.748450
  0.832000,  0.762570
  0.834000,  0.776110
  0.836000,  0.782260
  0.838000,  0.783680
  0.840000,  0.785250
  0.842000,  0.778770
  0.844000,  0.764440
  0.846000,  0.752890
  0.848000,  0.734570
  0.850000,  0.709930
  0.852000,  0.684200
  0.854000,  0.655950
  0.856000,  0.631150
  0.858000,  0.604740
  0.860000,  0.578520
  0.862000,  0.549730
  0.864000,  0.525680
  0.866000,  0.507410
  0.868000,  0.492810
  0.870000,  0.482770
  0.872000,  0.471830
  0.874000,  0.461310
  0.876000,  0.449170
  0.878000,  0.439350
  0.880000,  0.426300
  0.882000,  0.415440
  0.884000,  0.400450
  0.886000,  0.389450
  0.888000,  0.372910
  0.890000,  0.355840
  0.892000,  0.335960
  0.894000,  0.323930
  0.896000,  0.304830
  0.898000,  0.286860
  0.900000,  0.265730
  0.902000,  0.244550
  0.904000,  0.222590
  0.906000,  0.205580
  0.908000,  0.182970
  0.910000,  0.159080
  0.912000,  0.140600
  0.914000,  0.118770
  0.916000,  0.097090
  0.918000,  0.075390
  0.920000,  0.056960
  0.922000,  0.039090
  0.924000,  0.024670
  0.926000,  0.017020
  0.928000,  0.008130
  0.930000,  0.006150
  0.932000,  0.003760
  0.934000,  0.003680
  0.936000,  0.009770
  0.938000,  0.016680
  0.940000,  0.020940
  0.942000,  0.030370
  0.944000,  0.036930
  0.946000,  0.035570
  0.948000,  0.040180
  0.950000,  0.039920
  0.952000,  0.038380
  0.954000,  0.032170
  0.956000,  0.026890
  0.958000,  0.017230
  0.960000,  0.005840
  0.962000, -0.001930
  0.964000, -0.014410
  0.966000, -0.027380
  0.968000, -0.043720
  0.970000, -0.057950
  0.972000, -0.069390
  0.974000, -0.080290
  0.976000, -0.090360
  0.978000, -0.100900
  0.980000, -0.110350
  0.982000, -0.121170
  0.984000, -0.134770
  0.986000, -0.134630
  0.988000, -0.136310
  0.990000, -0.134870
  0.992000, -0.136430
  0.994000, -0.137210
  0.996000, -0.142070
  0.998000, -0.140090
  1.000000, -0.142720
