# z (nm)   (kJ/mol)
  0.125000,  6.484100
  0.127000,  6.071000
  0.129000,  5.662900
  0.131000,  5.269300
  0.133000,  4.879000
  0.135000,  4.465800
  0.137000,  4.042900
  0.139000,  3.613400
  0.141000,  3.183900
  0.143000,  2.757700
  0.145000,  2.330000
  0.147000,  1.896600
  0.149000,  1.457100
  0.151000,  1.014600
  0.153000,  0.580200
  0.155000,  0.153200
  0.157000, -0.269800
  0.159000, -0.691000
  0.161000, -1.115700
  0.163000, -1.535000
  0.165000, -1.945700
  0.167000, -2.354200
  0.169000, -2.757000
  0.171000, -3.148300
  0.173000, -3.530900
  0.175000, -3.905300
  0.177000, -4.268300
  0.179000, -4.622600
  0.181000, -4.966600
  0.183000, -5.297300
  0.185000, -5.617500
  0.187000, -5.928400
  0.189000, -6.226600
  0.191000, -6.509700
  0.193000, -6.779800
  0.195000, -7.037800
  0.197000, -7.282200
  0.199000, -7.513300
  0.201000, -7.731000
  0.203000, -7.935300
  0.205000, -8.125700
  0.207000, -8.301200
  0.209000, -8.462300
  0.211000, -8.608900
  0.213000, -8.741300
  0.215000, -8.860200
  0.217000, -8.964900
  0.219000, -9.055800
  0.221000, -9.133500
  0.223000, -9.197900
  0.225000, -9.249600
  0.227000, -9.288800
  0.229000, -9.315400
  0.231000, -9.330100
  0.233000, -9.333400
  0.235000, -9.325500
  0.237000, -9.307200
  0.239000, -9.279400
  0.241000, -9.241600
  0.243000, -9.194200
  0.245000, -9.138800
  0.247000, -9.074900
  0.249000, -9.002700
  0.251000, -8.923300
  0.253000, -8.837400
  0.255000, -8.746800
  0.257000, -8.651100
  0.259000, -8.549900
  0.261000, -8.444700
  0.263000, -8.336900
  0.265000, -8.226500
  0.267000, -8.113600
  0.269000, -7.998700
  0.271000, -7.881500
  0.273000, -7.763400
  0.275000, -7.644900
  0.277000, -7.526400
  0.279000, -7.408200
  0.281000, -7.290200
  0.283000, -7.173000
  0.285000, -7.056700
  0.287000, -6.941900
  0.289000, -6.828400
  0.291000, -6.716500
  0.293000, -6.606300
  0.295000, -6.498200
  0.297000, -6.392100
  0.299000, -6.288000
  0.301000, -6.186100
  0.303000, -6.086400
  0.305000, -5.988800
  0.307000, -5.893500
  0.309000, -5.800200
  0.311000, -5.708800
  0.313000, -5.619100
  0.315000, -5.531500
  0.317000, -5.445900
  0.319000, -5.361600
  0.321000, -5.278600
  0.323000, -5.197000
  0.325000, -5.116700
  0.327000, -5.037400
  0.329000, -4.959100
  0.331000, -4.881300
  0.333000, -4.804200
  0.335000, -4.728100
  0.337000, -4.652200
  0.339000, -4.576700
  0.341000, -4.501500
  0.343000, -4.426000
  0.345000, -4.350600
  0.347000, -4.275100
  0.349000, -4.199200
  0.351000, -4.122900
  0.353000, -4.046000
  0.355000, -3.968600
  0.357000, -3.890600
  0.359000, -3.811700
  0.361000, -3.732100
  0.363000, -3.651800
  0.365000, -3.570800
  0.367000, -3.489000
  0.369000, -3.406100
  0.371000, -3.322500
  0.373000, -3.238000
  0.375000, -3.152800
  0.377000, -3.066800
  0.379000, -2.980200
  0.381000, -2.892900
  0.383000, -2.804800
  0.385000, -2.716300
  0.387000, -2.627200
  0.389000, -2.537400
  0.391000, -2.447600
  0.393000, -2.357600
  0.395000, -2.267200
  0.397000, -2.176600
  0.399000, -2.086400
  0.401000, -1.996200
  0.403000, -1.906200
  0.405000, -1.816900
  0.407000, -1.728500
  0.409000, -1.640800
  0.411000, -1.553700
  0.413000, -1.467100
  0.415000, -1.381000
  0.417000, -1.296400
  0.419000, -1.213600
  0.421000, -1.132100
  0.423000, -1.052200
  0.425000, -0.974400
  0.427000, -0.898500
  0.429000, -0.823900
  0.431000, -0.751300
  0.433000, -0.681000
  0.435000, -0.613000
  0.437000, -0.547400
  0.439000, -0.484000
  0.441000, -0.423000
  0.443000, -0.364700
  0.445000, -0.309100
  0.447000, -0.256600
  0.449000, -0.206900
  0.451000, -0.159700
  0.453000, -0.115300
  0.455000, -0.073700
  0.457000, -0.035200
  0.459000,  0.000500
  0.461000,  0.033200
  0.463000,  0.062800
  0.465000,  0.089400
  0.467000,  0.112900
  0.469000,  0.133800
  0.471000,  0.151900
  0.473000,  0.167300
  0.475000,  0.180100
  0.477000,  0.190100
  0.479000,  0.197600
  0.481000,  0.202700
  0.483000,  0.205600
  0.485000,  0.206100
  0.487000,  0.204400
  0.489000,  0.200500
  0.491000,  0.194500
  0.493000,  0.186800
  0.495000,  0.177400
  0.497000,  0.166200
  0.499000,  0.153300
  0.501000,  0.139100
  0.503000,  0.123800
  0.505000,  0.107300
  0.507000,  0.089700
  0.509000,  0.071400
  0.511000,  0.052200
  0.513000,  0.032200
  0.515000,  0.011600
  0.517000, -0.009700
  0.519000, -0.031300
  0.521000, -0.052800
  0.523000, -0.074700
  0.525000, -0.096700
  0.527000, -0.118700
  0.529000, -0.140700
  0.531000, -0.162600
  0.533000, -0.184300
  0.535000, -0.205400
  0.537000, -0.226200
  0.539000, -0.246700
  0.541000, -0.266700
  0.543000, -0.286000
  0.545000, -0.304600
  0.547000, -0.322300
  0.549000, -0.339300
  0.551000, -0.355600
  0.553000, -0.371300
  0.555000, -0.386200
  0.557000, -0.400100
  0.559000, -0.413300
  0.561000, -0.425700
  0.563000, -0.437300
  0.565000, -0.448100
  0.567000, -0.458000
  0.569000, -0.467100
  0.571000, -0.475300
  0.573000, -0.482600
  0.575000, -0.489100
  0.577000, -0.494900
  0.579000, -0.500000
  0.581000, -0.504200
  0.583000, -0.507800
  0.585000, -0.510600
  0.587000, -0.512700
  0.589000, -0.514100
  0.591000, -0.514900
  0.593000, -0.515100
  0.595000, -0.514700
  0.597000, -0.513800
  0.599000, -0.512200
  0.601000, -0.510000
  0.603000, -0.507500
  0.605000, -0.504500
  0.607000, -0.501100
  0.609000, -0.497400
  0.611000, -0.493200
  0.613000, -0.488600
  0.615000, -0.483600
  0.617000, -0.478400
  0.619000, -0.472800
  0.621000, -0.467100
  0.623000, -0.461300
  0.625000, -0.455200
  0.627000, -0.448500
  0.629000, -0.441600
  0.631000, -0.434600
  0.633000, -0.427500
  0.635000, -0.420200
  0.637000, -0.412500
  0.639000, -0.404800
  0.641000, -0.396900
  0.643000, -0.388800
  0.645000, -0.380600
  0.647000, -0.372200
  0.649000, -0.363700
  0.651000, -0.355000
  0.653000, -0.346200
  0.655000, -0.337300
  0.657000, -0.328200
  0.659000, -0.319000
  0.661000, -0.309600
  0.663000, -0.300300
  0.665000, -0.290800
  0.667000, -0.281300
  0.669000, -0.271600
  0.671000, -0.261700
  0.673000, -0.251800
  0.675000, -0.241700
  0.677000, -0.231600
  0.679000, -0.221500
  0.681000, -0.211200
  0.683000, -0.200900
  0.685000, -0.190500
  0.687000, -0.180200
  0.689000, -0.169800
  0.691000, -0.159500
  0.693000, -0.149100
  0.695000, -0.138700
  0.697000, -0.128300
  0.699000, -0.117800
  0.701000, -0.107400
  0.703000, -0.096900
  0.705000, -0.086500
  0.707000, -0.076300
  0.709000, -0.066000
  0.711000, -0.055700
  0.713000, -0.045600
  0.715000, -0.035600
  0.717000, -0.025900
  0.719000, -0.016200
  0.721000, -0.006700
  0.723000,  0.002700
  0.725000,  0.012000
  0.727000,  0.021300
  0.729000,  0.030200
  0.731000,  0.038800
  0.733000,  0.047400
  0.735000,  0.055700
  0.737000,  0.063900
  0.739000,  0.071800
  0.741000,  0.079500
  0.743000,  0.086900
  0.745000,  0.094100
  0.747000,  0.100900
  0.749000,  0.107500
  0.751000,  0.113800
  0.753000,  0.119800
  0.755000,  0.125500
  0.757000,  0.131000
  0.759000,  0.136200
  0.761000,  0.141000
  0.763000,  0.145400
  0.765000,  0.149600
  0.767000,  0.153500
  0.769000,  0.157200
  0.771000,  0.160600
  0.773000,  0.163700
  0.775000,  0.166400
  0.777000,  0.168900
  0.779000,  0.171100
  0.781000,  0.173100
  0.783000,  0.174700
  0.785000,  0.176000
  0.787000,  0.176900
  0.789000,  0.177500
  0.791000,  0.177800
  0.793000,  0.177700
  0.795000,  0.177400
  0.797000,  0.177000
  0.799000,  0.176300
  0.801000,  0.175300
  0.803000,  0.174000
  0.805000,  0.172400
  0.807000,  0.170500
  0.809000,  0.168500
  0.811000,  0.166300
  0.813000,  0.163900
  0.815000,  0.161200
  0.817000,  0.158300
  0.819000,  0.155200
  0.821000,  0.151900
  0.823000,  0.148500
  0.825000,  0.144900
  0.827000,  0.141100
  0.829000,  0.137200
  0.831000,  0.133000
  0.833000,  0.128700
  0.835000,  0.124400
  0.837000,  0.119900
  0.839000,  0.115300
  0.841000,  0.110600
  0.843000,  0.105800
  0.845000,  0.100800
  0.847000,  0.095800
  0.849000,  0.090900
  0.851000,  0.085700
  0.853000,  0.080400
  0.855000,  0.075300
  0.857000,  0.070100
  0.859000,  0.064800
  0.861000,  0.059500
  0.863000,  0.054100
  0.865000,  0.048700
  0.867000,  0.043300
  0.869000,  0.038000
  0.871000,  0.032600
  0.873000,  0.027200
  0.875000,  0.022000
  0.877000,  0.016800
  0.879000,  0.011600
  0.881000,  0.006400
  0.883000,  0.001300
  0.885000, -0.003800
  0.887000, -0.008800
  0.889000, -0.013600
  0.891000, -0.018300
  0.893000, -0.022900
  0.895000, -0.027300
  0.897000, -0.031700
  0.899000, -0.035900
  0.901000, -0.039800
  0.903000, -0.043700
  0.905000, -0.047200
  0.907000, -0.050600
  0.909000, -0.053900
  0.911000, -0.056800
  0.913000, -0.059500
  0.915000, -0.062200
  0.917000, -0.064500
  0.919000, -0.066600
  0.921000, -0.068500
  0.923000, -0.070200
  0.925000, -0.071600
  0.927000, -0.072700
  0.929000, -0.073500
  0.931000, -0.074100
  0.933000, -0.074500
  0.935000, -0.074700
  0.937000, -0.074600
  0.939000, -0.074400
  0.941000, -0.073900
  0.943000, -0.073100
  0.945000, -0.072100
  0.947000, -0.070900
  0.949000, -0.069400
  0.951000, -0.067900
  0.953000, -0.066100
  0.955000, -0.064200
  0.957000, -0.062100
  0.959000, -0.059800
  0.961000, -0.057500
  0.963000, -0.055000
  0.965000, -0.052400
  0.967000, -0.049700
  0.969000, -0.046900
  0.971000, -0.043900
  0.973000, -0.040800
  0.975000, -0.037800
  0.977000, -0.034600
  0.979000, -0.031300
  0.981000, -0.028100
  0.983000, -0.024900
  0.985000, -0.021600
  0.987000, -0.018200
  0.989000, -0.014900
  0.991000, -0.011600
  0.993000, -0.008300
  0.995000, -0.005100
  0.997000, -0.002000
  0.999000,  0.001100
  1.001000,  0.004100
  1.003000,  0.007000
  1.005000,  0.010000
  1.007000,  0.012900
  1.009000,  0.015700
  1.011000,  0.018500
  1.013000,  0.021200
  1.015000,  0.023800
  1.017000,  0.026400
  1.019000,  0.028800
  1.021000,  0.031100
  1.023000,  0.033400
  1.025000,  0.035500
  1.027000,  0.037500
  1.029000,  0.039400
  1.031000,  0.041300
  1.033000,  0.043200
  1.035000,  0.044800
  1.037000,  0.046400
  1.039000,  0.048100
  1.041000,  0.049700
  1.043000,  0.051200
  1.045000,  0.052500
  1.047000,  0.053800
  1.049000,  0.055100
  1.051000,  0.056200
  1.053000,  0.057200
  1.055000,  0.058100
  1.057000,  0.059000
  1.059000,  0.059900
  1.061000,  0.060600
  1.063000,  0.061300
  1.065000,  0.061900
  1.067000,  0.062400
  1.069000,  0.062900
  1.071000,  0.063300
  1.073000,  0.063600
  1.075000,  0.064000
  1.077000,  0.064200
  1.079000,  0.064500
  1.081000,  0.064600
  1.083000,  0.064700
  1.085000,  0.064600
  1.087000,  0.064400
  1.089000,  0.064300
  1.091000,  0.064100
  1.093000,  0.063800
  1.095000,  0.063400
  1.097000,  0.062900
  1.099000,  0.062300
  1.101000,  0.061700
  1.103000,  0.061000
  1.105000,  0.060200
  1.107000,  0.059300
  1.109000,  0.058400
  1.111000,  0.057400
  1.113000,  0.056400
  1.115000,  0.055200
  1.117000,  0.054000
  1.119000,  0.052700
  1.121000,  0.051300
  1.123000,  0.049900
  1.125000,  0.048500
  1.127000,  0.046900
  1.129000,  0.045400
  1.131000,  0.043900
  1.133000,  0.042400
  1.135000,  0.040800
  1.137000,  0.039200
  1.139000,  0.037700
  1.141000,  0.036100
  1.143000,  0.034500
  1.145000,  0.032900
  1.147000,  0.031400
  1.149000,  0.030000
  1.151000,  0.028500
  1.153000,  0.027000
  1.155000,  0.025500
  1.157000,  0.024100
  1.159000,  0.022700
  1.161000,  0.021500
  1.163000,  0.020400
  1.165000,  0.019400
  1.167000,  0.018400
  1.169000,  0.017300
  1.171000,  0.016400
  1.173000,  0.015500
  1.175000,  0.014700
  1.177000,  0.013800
  1.179000,  0.013000
  1.181000,  0.012300
  1.183000,  0.011800
  1.185000,  0.011500
  1.187000,  0.011200
  1.189000,  0.011000
  1.191000,  0.010800
  1.193000,  0.010600
  1.195000,  0.010300
  1.197000,  0.010100
  1.199000,  0.009600
  1.201000,  0.009300
  1.203000,  0.009000
  1.205000,  0.008900
  1.207000,  0.009000
  1.209000,  0.008900
  1.211000,  0.008800
  1.213000,  0.008600
  1.215000,  0.008200
  1.217000,  0.008100
  1.219000,  0.007800
  1.221000,  0.007400
  1.223000,  0.007100
  1.225000,  0.006800
  1.227000,  0.006400
  1.229000,  0.006000
  1.231000,  0.005500
  1.233000,  0.005100
  1.235000,  0.004500
  1.237000,  0.003800
  1.239000,  0.003000
  1.241000,  0.002100
  1.243000,  0.001100
  1.245000,  0.000200
  1.247000, -0.000900
  1.249000, -0.002000
  1.251000, -0.003100
  1.253000, -0.004200
  1.255000, -0.005300
  1.257000, -0.006600
  1.259000, -0.007900
  1.261000, -0.009200
  1.263000, -0.010500
  1.265000, -0.011800
  1.267000, -0.013200
  1.269000, -0.014600
  1.271000, -0.015900
  1.273000, -0.017100
  1.275000, -0.018400
  1.277000, -0.019600
  1.279000, -0.020800
  1.281000, -0.021900
  1.283000, -0.023000
  1.285000, -0.024000
  1.287000, -0.024900
  1.289000, -0.025800
  1.291000, -0.026600
  1.293000, -0.027300
  1.295000, -0.027800
  1.297000, -0.028200
  1.299000, -0.028500
  1.301000, -0.028700
  1.303000, -0.028700
  1.305000, -0.028700
  1.307000, -0.028500
  1.309000, -0.028200
  1.311000, -0.027600
  1.313000, -0.027000
  1.315000, -0.026200
  1.317000, -0.025400
  1.319000, -0.024400
  1.321000, -0.023200
  1.323000, -0.022000
  1.325000, -0.020600
  1.327000, -0.019000
  1.329000, -0.017400
  1.331000, -0.015700
  1.333000, -0.013900
  1.335000, -0.012000
  1.337000, -0.009900
  1.339000, -0.007700
  1.341000, -0.005500
  1.343000, -0.003100
  1.345000, -0.000700
  1.347000,  0.001800
  1.349000,  0.004400
  1.351000,  0.006900
  1.353000,  0.009400
  1.355000,  0.011900
  1.357000,  0.014500
  1.359000,  0.017000
  1.361000,  0.019500
  1.363000,  0.022000
  1.365000,  0.024300
  1.367000,  0.026500
  1.369000,  0.028600
  1.371000,  0.030500
  1.373000,  0.032500
  1.375000,  0.034400
  1.377000,  0.035900
  1.379000,  0.037200
  1.381000,  0.038400
  1.383000,  0.039300
  1.385000,  0.040100
  1.387000,  0.040600
  1.389000,  0.040800
  1.391000,  0.040700
  1.393000,  0.040100
  1.395000,  0.039200
  1.397000,  0.037900
  1.399000,  0.036100
