# z (nm)   (kJ/mol)
  0.311000, 10.213800
  0.313000,  9.889900
  0.315000,  9.550700
  0.317000,  9.217700
  0.319000,  8.886000
  0.321000,  8.557000
  0.323000,  8.247500
  0.325000,  7.934000
  0.327000,  7.619800
  0.329000,  7.306800
  0.331000,  6.976600
  0.333000,  6.638900
  0.335000,  6.299300
  0.337000,  5.962800
  0.339000,  5.636200
  0.341000,  5.313400
  0.343000,  4.988500
  0.345000,  4.664600
  0.347000,  4.342800
  0.349000,  4.021900
  0.351000,  3.703100
  0.353000,  3.388500
  0.355000,  3.076900
  0.357000,  2.771400
  0.359000,  2.471900
  0.361000,  2.174800
  0.363000,  1.883000
  0.365000,  1.599100
  0.367000,  1.320400
  0.369000,  1.048100
  0.371000,  0.786000
  0.373000,  0.532100
  0.375000,  0.283600
  0.377000,  0.042700
  0.379000, -0.191600
  0.381000, -0.418500
  0.383000, -0.636400
  0.385000, -0.847000
  0.387000, -1.048700
  0.389000, -1.240900
  0.391000, -1.424700
  0.393000, -1.601100
  0.395000, -1.767900
  0.397000, -1.926800
  0.399000, -2.078800
  0.401000, -2.222400
  0.403000, -2.359000
  0.405000, -2.488600
  0.407000, -2.609800
  0.409000, -2.723500
  0.411000, -2.829900
  0.413000, -2.929000
  0.415000, -3.021900
  0.417000, -3.108900
  0.419000, -3.190100
  0.421000, -3.265300
  0.423000, -3.335000
  0.425000, -3.399500
  0.427000, -3.458400
  0.429000, -3.512400
  0.431000, -3.562300
  0.433000, -3.608400
  0.435000, -3.650700
  0.437000, -3.689100
  0.439000, -3.723600
  0.441000, -3.755500
  0.443000, -3.785400
  0.445000, -3.812600
  0.447000, -3.837700
  0.449000, -3.861100
  0.451000, -3.882700
  0.453000, -3.903100
  0.455000, -3.922000
  0.457000, -3.939800
  0.459000, -3.956700
  0.461000, -3.972800
  0.463000, -3.988700
  0.465000, -4.004200
  0.467000, -4.019000
  0.469000, -4.033800
  0.471000, -4.048700
  0.473000, -4.063600
  0.475000, -4.078800
  0.477000, -4.094200
  0.479000, -4.109800
  0.481000, -4.125600
  0.483000, -4.142000
  0.485000, -4.158700
  0.487000, -4.175600
  0.489000, -4.192900
  0.491000, -4.210800
  0.493000, -4.228700
  0.495000, -4.247000
  0.497000, -4.265700
  0.499000, -4.284600
  0.501000, -4.303500
  0.503000, -4.322300
  0.505000, -4.340800
  0.507000, -4.358800
  0.509000, -4.376700
  0.511000, -4.394100
  0.513000, -4.410900
  0.515000, -4.427000
  0.517000, -4.442000
  0.519000, -4.455900
  0.521000, -4.468800
  0.523000, -4.480600
  0.525000, -4.491200
  0.527000, -4.500200
  0.529000, -4.507600
  0.531000, -4.513300
  0.533000, -4.517300
  0.535000, -4.519400
  0.537000, -4.519100
  0.539000, -4.516600
  0.541000, -4.512200
  0.543000, -4.505600
  0.545000, -4.496500
  0.547000, -4.485000
  0.549000, -4.471300
  0.551000, -4.455100
  0.553000, -4.436200
  0.555000, -4.414700
  0.557000, -4.390500
  0.559000, -4.363600
  0.561000, -4.334200
  0.563000, -4.302200
  0.565000, -4.267700
  0.567000, -4.230400
  0.569000, -4.190400
  0.571000, -4.147800
  0.573000, -4.102500
  0.575000, -4.054800
  0.577000, -4.004700
  0.579000, -3.952100
  0.581000, -3.897100
  0.583000, -3.840000
  0.585000, -3.780900
  0.587000, -3.719500
  0.589000, -3.656000
  0.591000, -3.590600
  0.593000, -3.523300
  0.595000, -3.454200
  0.597000, -3.383600
  0.599000, -3.311400
  0.601000, -3.237800
  0.603000, -3.163200
  0.605000, -3.087500
  0.607000, -3.010800
  0.609000, -2.933300
  0.611000, -2.855100
  0.613000, -2.776100
  0.615000, -2.696700
  0.617000, -2.617200
  0.619000, -2.537700
  0.621000, -2.458200
  0.623000, -2.378700
  0.625000, -2.299400
  0.627000, -2.220600
  0.629000, -2.142400
  0.631000, -2.065200
  0.633000, -1.988900
  0.635000, -1.913400
  0.637000, -1.838900
  0.639000, -1.765400
  0.641000, -1.693300
  0.643000, -1.622400
  0.645000, -1.553100
  0.647000, -1.485500
  0.649000, -1.419500
  0.651000, -1.355200
  0.653000, -1.292600
  0.655000, -1.232100
  0.657000, -1.173800
  0.659000, -1.117200
  0.661000, -1.062500
  0.663000, -1.010200
  0.665000, -0.960000
  0.667000, -0.912000
  0.669000, -0.866200
  0.671000, -0.822500
  0.673000, -0.781100
  0.675000, -0.742100
  0.677000, -0.705100
  0.679000, -0.670100
  0.681000, -0.637300
  0.683000, -0.606900
  0.685000, -0.578300
  0.687000, -0.551900
  0.689000, -0.527600
  0.691000, -0.505000
  0.693000, -0.484500
  0.695000, -0.465800
  0.697000, -0.449200
  0.699000, -0.434800
  0.701000, -0.422100
  0.703000, -0.411000
  0.705000, -0.401200
  0.707000, -0.393000
  0.709000, -0.386400
  0.711000, -0.380800
  0.713000, -0.376800
  0.715000, -0.374200
  0.717000, -0.372700
  0.719000, -0.372100
  0.721000, -0.372600
  0.723000, -0.373800
  0.725000, -0.376600
  0.727000, -0.380700
  0.729000, -0.385100
  0.731000, -0.390300
  0.733000, -0.396500
  0.735000, -0.403100
  0.737000, -0.409900
  0.739000, -0.417400
  0.741000, -0.425200
  0.743000, -0.433200
  0.745000, -0.441700
  0.747000, -0.450500
  0.749000, -0.459400
  0.751000, -0.468400
  0.753000, -0.478000
  0.755000, -0.487300
  0.757000, -0.496600
  0.759000, -0.506100
  0.761000, -0.515800
  0.763000, -0.525300
  0.765000, -0.534600
  0.767000, -0.543800
  0.769000, -0.552700
  0.771000, -0.561600
  0.773000, -0.570400
  0.775000, -0.579000
  0.777000, -0.587300
  0.779000, -0.595200
  0.781000, -0.602800
  0.783000, -0.610200
  0.785000, -0.617400
  0.787000, -0.624400
  0.789000, -0.631000
  0.791000, -0.637200
  0.793000, -0.643100
  0.795000, -0.648600
  0.797000, -0.653700
  0.799000, -0.658500
  0.801000, -0.663000
  0.803000, -0.667200
  0.805000, -0.671000
  0.807000, -0.674400
  0.809000, -0.677600
  0.811000, -0.680700
  0.813000, -0.683400
  0.815000, -0.685600
  0.817000, -0.687500
  0.819000, -0.688800
  0.821000, -0.689800
  0.823000, -0.690500
  0.825000, -0.691000
  0.827000, -0.691200
  0.829000, -0.691100
  0.831000, -0.690700
  0.833000, -0.690000
  0.835000, -0.689100
  0.837000, -0.687800
  0.839000, -0.686300
  0.841000, -0.684400
  0.843000, -0.682300
  0.845000, -0.680100
  0.847000, -0.677600
  0.849000, -0.674900
  0.851000, -0.671900
  0.853000, -0.668600
  0.855000, -0.665100
  0.857000, -0.661500
  0.859000, -0.657600
  0.861000, -0.653300
  0.863000, -0.648900
  0.865000, -0.644200
  0.867000, -0.639300
  0.869000, -0.634300
  0.871000, -0.629100
  0.873000, -0.623800
  0.875000, -0.618200
  0.877000, -0.612700
  0.879000, -0.606900
  0.881000, -0.600900
  0.883000, -0.594700
  0.885000, -0.588500
  0.887000, -0.582100
  0.889000, -0.575600
  0.891000, -0.568900
  0.893000, -0.562000
  0.895000, -0.555100
  0.897000, -0.548300
  0.899000, -0.541300
  0.901000, -0.534400
  0.903000, -0.527300
  0.905000, -0.519900
  0.907000, -0.512500
  0.909000, -0.505200
  0.911000, -0.497700
  0.913000, -0.490200
  0.915000, -0.482600
  0.917000, -0.475100
  0.919000, -0.467700
  0.921000, -0.460200
  0.923000, -0.452700
  0.925000, -0.445200
  0.927000, -0.437700
  0.929000, -0.430300
  0.931000, -0.422900
  0.933000, -0.415400
  0.935000, -0.407900
  0.937000, -0.400700
  0.939000, -0.393400
  0.941000, -0.386200
  0.943000, -0.379000
  0.945000, -0.371900
  0.947000, -0.365000
  0.949000, -0.358300
  0.951000, -0.351600
  0.953000, -0.345000
  0.955000, -0.338400
  0.957000, -0.332100
  0.959000, -0.325800
  0.961000, -0.319700
  0.963000, -0.313700
  0.965000, -0.307800
  0.967000, -0.301900
  0.969000, -0.296300
  0.971000, -0.290700
  0.973000, -0.285300
  0.975000, -0.280000
  0.977000, -0.274900
  0.979000, -0.269900
  0.981000, -0.265000
  0.983000, -0.260100
  0.985000, -0.255400
  0.987000, -0.250800
  0.989000, -0.246300
  0.991000, -0.241900
  0.993000, -0.237600
  0.995000, -0.233400
  0.997000, -0.229300
  0.999000, -0.225300
  1.001000, -0.221400
  1.003000, -0.217600
  1.005000, -0.213900
  1.007000, -0.210200
  1.009000, -0.206500
  1.011000, -0.202900
  1.013000, -0.199400
  1.015000, -0.195900
  1.017000, -0.192400
  1.019000, -0.189000
  1.021000, -0.185600
  1.023000, -0.182100
  1.025000, -0.178800
  1.027000, -0.175500
  1.029000, -0.172200
  1.031000, -0.168900
  1.033000, -0.165600
  1.035000, -0.162100
  1.037000, -0.158600
  1.039000, -0.155200
  1.041000, -0.151800
  1.043000, -0.148400
  1.045000, -0.145000
  1.047000, -0.141600
  1.049000, -0.138200
  1.051000, -0.134700
  1.053000, -0.131200
  1.055000, -0.127600
  1.057000, -0.124100
  1.059000, -0.120700
  1.061000, -0.117200
  1.063000, -0.113800
  1.065000, -0.110300
  1.067000, -0.106800
  1.069000, -0.103500
  1.071000, -0.100300
  1.073000, -0.097000
  1.075000, -0.093700
  1.077000, -0.090500
  1.079000, -0.087400
  1.081000, -0.084200
  1.083000, -0.081200
  1.085000, -0.078300
  1.087000, -0.075400
  1.089000, -0.072400
  1.091000, -0.069600
  1.093000, -0.066900
  1.095000, -0.064300
  1.097000, -0.062000
  1.099000, -0.059700
  1.101000, -0.057300
  1.103000, -0.055000
  1.105000, -0.053000
  1.107000, -0.051000
  1.109000, -0.049100
  1.111000, -0.047300
  1.113000, -0.045600
  1.115000, -0.044000
  1.117000, -0.042400
  1.119000, -0.041000
  1.121000, -0.039700
  1.123000, -0.038600
  1.125000, -0.037500
  1.127000, -0.036700
  1.129000, -0.035900
  1.131000, -0.035100
  1.133000, -0.034300
  1.135000, -0.033500
  1.137000, -0.032900
  1.139000, -0.032300
  1.141000, -0.031700
  1.143000, -0.031200
  1.145000, -0.030800
  1.147000, -0.030500
  1.149000, -0.030200
  1.151000, -0.029800
  1.153000, -0.029500
  1.155000, -0.029300
  1.157000, -0.029100
  1.159000, -0.028800
  1.161000, -0.028600
  1.163000, -0.028300
  1.165000, -0.028100
  1.167000, -0.027900
  1.169000, -0.027600
  1.171000, -0.027400
  1.173000, -0.027200
  1.175000, -0.026900
  1.177000, -0.026600
  1.179000, -0.026300
  1.181000, -0.026000
  1.183000, -0.025700
  1.185000, -0.025400
  1.187000, -0.025100
  1.189000, -0.024700
  1.191000, -0.024300
  1.193000, -0.023700
  1.195000, -0.023200
  1.197000, -0.022600
  1.199000, -0.022000
  1.201000, -0.021300
  1.203000, -0.020800
  1.205000, -0.020300
  1.207000, -0.019700
  1.209000, -0.019100
  1.211000, -0.018400
  1.213000, -0.017800
  1.215000, -0.017200
  1.217000, -0.016600
  1.219000, -0.015900
  1.221000, -0.015100
  1.223000, -0.014400
  1.225000, -0.013600
  1.227000, -0.013000
  1.229000, -0.012300
  1.231000, -0.011700
  1.233000, -0.011100
  1.235000, -0.010400
  1.237000, -0.009800
  1.239000, -0.009200
  1.241000, -0.008600
  1.243000, -0.008100
  1.245000, -0.007500
  1.247000, -0.007000
  1.249000, -0.006400
  1.251000, -0.005800
  1.253000, -0.005300
  1.255000, -0.004900
  1.257000, -0.004500
  1.259000, -0.004000
  1.261000, -0.003500
  1.263000, -0.003300
  1.265000, -0.003100
  1.267000, -0.002800
  1.269000, -0.002500
  1.271000, -0.002200
  1.273000, -0.001900
  1.275000, -0.001600
  1.277000, -0.001400
  1.279000, -0.001400
  1.281000, -0.001500
  1.283000, -0.001600
  1.285000, -0.001500
  1.287000, -0.001500
  1.289000, -0.001500
  1.291000, -0.001700
  1.293000, -0.002000
  1.295000, -0.002200
  1.297000, -0.002500
  1.299000, -0.002800
  1.301000, -0.003100
  1.303000, -0.003500
  1.305000, -0.003900
  1.307000, -0.004400
  1.309000, -0.004800
  1.311000, -0.005200
  1.313000, -0.005600
  1.315000, -0.006000
  1.317000, -0.006200
  1.319000, -0.006400
  1.321000, -0.006500
  1.323000, -0.006600
  1.325000, -0.006700
  1.327000, -0.006900
  1.329000, -0.006900
  1.331000, -0.006600
  1.333000, -0.006300
  1.335000, -0.005900
  1.337000, -0.005400
  1.339000, -0.004800
  1.341000, -0.004100
  1.343000, -0.003400
  1.345000, -0.002400
  1.347000, -0.001300
  1.349000, -0.000200
  1.351000,  0.000900
  1.353000,  0.002300
  1.355000,  0.003800
  1.357000,  0.005400
  1.359000,  0.007100
  1.361000,  0.008900
  1.363000,  0.010800
  1.365000,  0.012800
  1.367000,  0.014900
  1.369000,  0.016900
  1.371000,  0.019100
  1.373000,  0.021300
  1.375000,  0.023500
  1.377000,  0.025700
  1.379000,  0.027800
  1.381000,  0.030000
  1.383000,  0.032100
  1.385000,  0.033900
  1.387000,  0.035600
  1.389000,  0.037100
  1.391000,  0.038300
  1.393000,  0.039100
  1.395000,  0.039700
  1.397000,  0.039900
  1.399000,  0.039600
