# z (nm)   (kJ/mol)
  0.048000,272.138550
  0.050000,269.910410
  0.052000,267.734930
  0.054000,265.599460
  0.056000,263.318380
  0.058000,261.216060
  0.060000,259.129650
  0.062000,257.024900
  0.064000,254.911840
  0.066000,252.788310
  0.068000,250.607020
  0.070000,248.395040
  0.072000,246.122720
  0.074000,243.771010
  0.076000,241.324440
  0.078000,238.763150
  0.080000,236.076670
  0.082000,233.241760
  0.084000,230.244040
  0.086000,227.092260
  0.088000,223.775570
  0.090000,220.301330
  0.092000,216.674610
  0.094000,212.910660
  0.096000,209.025060
  0.098000,205.039210
  0.100000,200.981670
  0.102000,196.882140
  0.104000,192.772450
  0.106000,188.687710
  0.108000,184.655150
  0.110000,180.697990
  0.112000,176.825350
  0.114000,173.043160
  0.116000,169.348360
  0.118000,165.727990
  0.120000,162.179390
  0.122000,158.695160
  0.124000,155.268310
  0.126000,151.890140
  0.128000,148.565870
  0.130000,145.277260
  0.132000,142.017710
  0.134000,138.765220
  0.136000,135.522140
  0.138000,132.279430
  0.140000,129.042010
  0.142000,125.823000
  0.144000,122.637310
  0.146000,119.515970
  0.148000,116.470640
  0.150000,113.508590
  0.152000,110.645850
  0.154000,107.857420
  0.156000,105.125340
  0.158000,102.414720
  0.160000, 99.686970
  0.162000, 96.918130
  0.164000, 94.091090
  0.166000, 91.214180
  0.168000, 88.307720
  0.170000, 85.412680
  0.172000, 82.580530
  0.174000, 79.866640
  0.176000, 77.291030
  0.178000, 74.869180
  0.180000, 72.597830
  0.182000, 70.445370
  0.184000, 68.371950
  0.186000, 66.312700
  0.188000, 64.212410
  0.190000, 62.022230
  0.192000, 59.728490
  0.194000, 57.332330
  0.196000, 54.903560
  0.198000, 52.523800
  0.200000, 50.282510
  0.202000, 48.217530
  0.204000, 46.323960
  0.206000, 44.549550
  0.208000, 42.843510
  0.210000, 41.139120
  0.212000, 39.417210
  0.214000, 37.677630
  0.216000, 35.943760
  0.218000, 34.238240
  0.220000, 32.567810
  0.222000, 30.964230
  0.224000, 29.418900
  0.226000, 27.936780
  0.228000, 26.510380
  0.230000, 25.136350
  0.232000, 23.796620
  0.234000, 22.494720
  0.236000, 21.233460
  0.238000, 19.994440
  0.240000, 18.786160
  0.242000, 17.612230
  0.244000, 16.472520
  0.246000, 15.382380
  0.248000, 14.334010
  0.250000, 13.326600
  0.252000, 12.370360
  0.254000, 11.454860
  0.256000, 10.592170
  0.258000,  9.769120
  0.260000,  8.994600
  0.262000,  8.264130
  0.264000,  7.567660
  0.266000,  6.903390
  0.268000,  6.263910
  0.270000,  5.648160
  0.272000,  5.057450
  0.274000,  4.481730
  0.276000,  3.924530
  0.278000,  3.392880
  0.280000,  2.881270
  0.282000,  2.399860
  0.284000,  1.948860
  0.286000,  1.530260
  0.288000,  1.128360
  0.290000,  0.752460
  0.292000,  0.393550
  0.294000,  0.055240
  0.296000, -0.273890
  0.298000, -0.590480
  0.300000, -0.895540
  0.302000, -1.204260
  0.304000, -1.510670
  0.306000, -1.821520
  0.308000, -2.139880
  0.310000, -2.466020
  0.312000, -2.802040
  0.314000, -3.149850
  0.316000, -3.517610
  0.318000, -3.898700
  0.320000, -4.294640
  0.322000, -4.706000
  0.324000, -5.143200
  0.326000, -5.599030
  0.328000, -6.061010
  0.330000, -6.547290
  0.332000, -7.042480
  0.334000, -7.548900
  0.336000, -8.066630
  0.338000, -8.590620
  0.340000, -9.114640
  0.342000, -9.632020
  0.344000,-10.146130
  0.346000,-10.645900
  0.348000,-11.123460
  0.350000,-11.576860
  0.352000,-12.009140
  0.354000,-12.403900
  0.356000,-12.765260
  0.358000,-13.085590
  0.360000,-13.378780
  0.362000,-13.631630
  0.364000,-13.850500
  0.366000,-14.021350
  0.368000,-14.149690
  0.370000,-14.225370
  0.372000,-14.253720
  0.374000,-14.230860
  0.376000,-14.163930
  0.378000,-14.048470
  0.380000,-13.884480
  0.382000,-13.679280
  0.384000,-13.439440
  0.386000,-13.166500
  0.388000,-12.864280
  0.390000,-12.540370
  0.392000,-12.199920
  0.394000,-11.853470
  0.396000,-11.505240
  0.398000,-11.161820
  0.400000,-10.832290
  0.402000,-10.519880
  0.404000,-10.229260
  0.406000, -9.975570
  0.408000, -9.754040
  0.410000, -9.568030
  0.412000, -9.421910
  0.414000, -9.304170
  0.416000, -9.209780
  0.418000, -9.139900
  0.420000, -9.083950
  0.422000, -9.043410
  0.424000, -9.013740
  0.426000, -8.982200
  0.428000, -8.953930
  0.430000, -8.916260
  0.432000, -8.866500
  0.434000, -8.813630
  0.436000, -8.746320
  0.438000, -8.667500
  0.440000, -8.575890
  0.442000, -8.464830
  0.444000, -8.348430
  0.446000, -8.205980
  0.448000, -8.042810
  0.450000, -7.856300
  0.452000, -7.644780
  0.454000, -7.416010
  0.456000, -7.172120
  0.458000, -6.920210
  0.460000, -6.676680
  0.462000, -6.442620
  0.464000, -6.232100
  0.466000, -6.055010
  0.468000, -5.916370
  0.470000, -5.819520
  0.472000, -5.761200
  0.474000, -5.749240
  0.476000, -5.785140
  0.478000, -5.857300
  0.480000, -5.960380
  0.482000, -6.086980
  0.484000, -6.207080
  0.486000, -6.305890
  0.488000, -6.363420
  0.490000, -6.392440
  0.492000, -6.420830
  0.494000, -6.513230
  0.496000, -6.738170
  0.498000, -7.112450
  0.500000, -7.544680
  0.502000, -7.916040
  0.504000, -8.099350
  0.506000, -8.068170
  0.508000, -7.933310
  0.510000, -7.833410
  0.512000, -7.874440
  0.514000, -8.043220
  0.516000, -8.285600
  0.518000, -8.517690
  0.520000, -8.692470
  0.522000, -8.788210
  0.524000, -8.819700
  0.526000, -8.814920
  0.528000, -8.801120
  0.530000, -8.803990
  0.532000, -8.835430
  0.534000, -8.887300
  0.536000, -8.980090
  0.538000, -9.087630
  0.540000, -9.207140
  0.542000, -9.318590
  0.544000, -9.406790
  0.546000, -9.471340
  0.548000, -9.507280
  0.550000, -9.503210
  0.552000, -9.486360
  0.554000, -9.436330
  0.556000, -9.358550
  0.558000, -9.259900
  0.560000, -9.144080
  0.562000, -9.004060
  0.564000, -8.846680
  0.566000, -8.665880
  0.568000, -8.456420
  0.570000, -8.222280
  0.572000, -7.963520
  0.574000, -7.677150
  0.576000, -7.364950
  0.578000, -7.032570
  0.580000, -6.680290
  0.582000, -6.311020
  0.584000, -5.916490
  0.586000, -5.519730
  0.588000, -5.109020
  0.590000, -4.706180
  0.592000, -4.305180
  0.594000, -3.906530
  0.596000, -3.540850
  0.598000, -3.180990
  0.600000, -2.848140
  0.602000, -2.534710
  0.604000, -2.240460
  0.606000, -1.972450
  0.608000, -1.724850
  0.610000, -1.507240
  0.612000, -1.308640
  0.614000, -1.137130
  0.616000, -0.988880
  0.618000, -0.866620
  0.620000, -0.782860
  0.622000, -0.715070
  0.624000, -0.677780
  0.626000, -0.653660
  0.628000, -0.656790
  0.630000, -0.670960
  0.632000, -0.695650
  0.634000, -0.724610
  0.636000, -0.758880
  0.638000, -0.781240
  0.640000, -0.793400
  0.642000, -0.791580
  0.644000, -0.780250
  0.646000, -0.755250
  0.648000, -0.722140
  0.650000, -0.692780
  0.652000, -0.664120
  0.654000, -0.636400
  0.656000, -0.623840
  0.658000, -0.621960
  0.660000, -0.624070
  0.662000, -0.628730
  0.664000, -0.638610
  0.666000, -0.643690
  0.668000, -0.635450
  0.670000, -0.627910
  0.672000, -0.610450
  0.674000, -0.584620
  0.676000, -0.544460
  0.678000, -0.516050
  0.680000, -0.488340
  0.682000, -0.457750
  0.684000, -0.430600
  0.686000, -0.399280
  0.688000, -0.374100
  0.690000, -0.340960
  0.692000, -0.316660
  0.694000, -0.285090
  0.696000, -0.253100
  0.698000, -0.214430
  0.700000, -0.179170
  0.702000, -0.140430
  0.704000, -0.090420
  0.706000, -0.051530
  0.708000, -0.018320
  0.710000,  0.011940
  0.712000,  0.033760
  0.714000,  0.051200
  0.716000,  0.057930
  0.718000,  0.050910
  0.720000,  0.040970
  0.722000,  0.029490
  0.724000,  0.019830
  0.726000,  0.009250
  0.728000,  0.007790
  0.730000,  0.010520
  0.732000,  0.018240
  0.734000,  0.041330
  0.736000,  0.076100
  0.738000,  0.111270
  0.740000,  0.138630
  0.742000,  0.174290
  0.744000,  0.200110
  0.746000,  0.218040
  0.748000,  0.231710
  0.750000,  0.231960
  0.752000,  0.226660
  0.754000,  0.216160
  0.756000,  0.197370
  0.758000,  0.179440
  0.760000,  0.163020
  0.762000,  0.142150
  0.764000,  0.126100
  0.766000,  0.115180
  0.768000,  0.111490
  0.770000,  0.107550
  0.772000,  0.114200
  0.774000,  0.124330
  0.776000,  0.138090
  0.778000,  0.157730
  0.780000,  0.181160
  0.782000,  0.213450
  0.784000,  0.244260
  0.786000,  0.279840
  0.788000,  0.303830
  0.790000,  0.326110
  0.792000,  0.337030
  0.794000,  0.348000
  0.796000,  0.348130
  0.798000,  0.342800
  0.800000,  0.330740
  0.802000,  0.313700
  0.804000,  0.285250
  0.806000,  0.255490
  0.808000,  0.228160
  0.810000,  0.195790
  0.812000,  0.174550
  0.814000,  0.151000
  0.816000,  0.137520
  0.818000,  0.122500
  0.820000,  0.120120
  0.822000,  0.113830
  0.824000,  0.113030
  0.826000,  0.118160
  0.828000,  0.119420
  0.830000,  0.120490
  0.832000,  0.121430
  0.834000,  0.120870
  0.836000,  0.118400
  0.838000,  0.113640
  0.840000,  0.105300
  0.842000,  0.099280
  0.844000,  0.085650
  0.846000,  0.075570
  0.848000,  0.065670
  0.850000,  0.048000
  0.852000,  0.028850
  0.854000,  0.013690
  0.856000,  0.000470
  0.858000, -0.014370
  0.860000, -0.031610
  0.862000, -0.042170
  0.864000, -0.051650
  0.866000, -0.061810
  0.868000, -0.067420
  0.870000, -0.071130
  0.872000, -0.075470
  0.874000, -0.082740
  0.876000, -0.080940
  0.878000, -0.078980
  0.880000, -0.079810
  0.882000, -0.082910
  0.884000, -0.084370
  0.886000, -0.082320
  0.888000, -0.077010
  0.890000, -0.079830
  0.892000, -0.079460
  0.894000, -0.072260
  0.896000, -0.066050
  0.898000, -0.069010
  0.900000, -0.068510
  0.902000, -0.069690
  0.904000, -0.070380
  0.906000, -0.073760
  0.908000, -0.082850
  0.910000, -0.086810
  0.912000, -0.095250
  0.914000, -0.103220
  0.916000, -0.108270
  0.918000, -0.115920
  0.920000, -0.119870
  0.922000, -0.122910
  0.924000, -0.124860
  0.926000, -0.121060
  0.928000, -0.117200
  0.930000, -0.110670
  0.932000, -0.102290
  0.934000, -0.087710
  0.936000, -0.076390
  0.938000, -0.058990
  0.940000, -0.048640
  0.942000, -0.032950
  0.944000, -0.017410
  0.946000, -0.007230
  0.948000,  0.000900
  0.950000,  0.004530
  0.952000,  0.000870
  0.954000,  0.006420
  0.956000,  0.011260
  0.958000,  0.008890
  0.960000,  0.003750
  0.962000,  0.003020
  0.964000,  0.005410
  0.966000,  0.009770
  0.968000,  0.015800
  0.970000,  0.028430
  0.972000,  0.041030
  0.974000,  0.053460
  0.976000,  0.072450
  0.978000,  0.088990
  0.980000,  0.112140
  0.982000,  0.131610
  0.984000,  0.144970
  0.986000,  0.147510
  0.988000,  0.158450
  0.990000,  0.162400
  0.992000,  0.161020
  0.994000,  0.153450
  0.996000,  0.148860
  0.998000,  0.143830
  1.000000,  0.135100
