# PMF between COM of SLYS and Gold slab.
# 
# SLYS
# z (nm)   (kJ/mol)
  0.153600,247.698320
  0.156800,240.423620
  0.160000,232.459020
  0.163200,223.850220
  0.166400,214.709020
  0.169600,205.381320
  0.172800,196.205520
  0.176000,187.376720
  0.179200,178.981720
  0.182400,171.080720
  0.185600,163.589720
  0.188800,156.207720
  0.192000,148.705720
  0.195200,141.247720
  0.198400,134.190720
  0.201600,127.568720
  0.204800,120.870720
  0.208000,113.769720
  0.211200,106.923720
  0.214400,100.562720
  0.217600, 94.229720
  0.220800, 87.934720
  0.224000, 81.858720
  0.227200, 75.882720
  0.230400, 69.852720
  0.233600, 63.942720
  0.236800, 58.368720
  0.240000, 53.017720
  0.243200, 47.738720
  0.246400, 42.615720
  0.249600, 37.738720
  0.252800, 32.938720
  0.256000, 27.958720
  0.259200, 22.860720
  0.262400, 17.919720
  0.265600, 13.198720
  0.268800,  8.554720
  0.272000,  3.997720
  0.275200, -0.354280
  0.278400, -4.646280
  0.281600, -8.897280
  0.284800,-12.751280
  0.288000,-16.067280
  0.291200,-19.117280
  0.294400,-22.094280
  0.297600,-24.890280
  0.300800,-27.348280
  0.304000,-29.416280
  0.307200,-31.186280
  0.310400,-32.769280
  0.313600,-34.187280
  0.316800,-35.438280
  0.320000,-36.535280
  0.323200,-37.509280
  0.326400,-38.361280
  0.329600,-39.031280
  0.332800,-39.466280
  0.336000,-39.681280
  0.339200,-39.734280
  0.342400,-39.615280
  0.345600,-39.285280
  0.348800,-38.726280
  0.352000,-37.985280
  0.355200,-37.146280
  0.358400,-36.287280
  0.361600,-35.444280
  0.364800,-34.613280
  0.368000,-33.783280
  0.371200,-32.954280
  0.374400,-32.139280
  0.377600,-31.340280
  0.380800,-30.520280
  0.384000,-29.704280
  0.387200,-28.957280
  0.390400,-28.272280
  0.393600,-27.585280
  0.396800,-26.819280
  0.400000,-25.934280
  0.403200,-24.979280
  0.406400,-24.013280
  0.409600,-23.037280
  0.412800,-21.965280
  0.416000,-20.873280
  0.419200,-20.001280
  0.422400,-19.503280
  0.425600,-19.243280
  0.428800,-19.056280
  0.432000,-18.965280
  0.435200,-19.072280
  0.438400,-19.343280
  0.441600,-19.602280
  0.444800,-19.716280
  0.448000,-19.694280
  0.451200,-19.636280
  0.454400,-19.588280
  0.457600,-19.544280
  0.460800,-19.487280
  0.464000,-19.403280
  0.467200,-19.329280
  0.470400,-19.285280
  0.473600,-19.263280
  0.476800,-19.252280
  0.480000,-19.286280
  0.483200,-19.415280
  0.486400,-19.619280
  0.489600,-19.821280
  0.492800,-19.997280
  0.496000,-20.155280
  0.499200,-20.336280
  0.502400,-20.559280
  0.505600,-20.821280
  0.508800,-21.037280
  0.512000,-21.166280
  0.515200,-21.217280
  0.518400,-21.243280
  0.521600,-21.273280
  0.524800,-21.258280
  0.528000,-21.126280
  0.531200,-20.851280
  0.534400,-20.456280
  0.537600,-19.965280
  0.540800,-19.461280
  0.544000,-18.963280
  0.547200,-18.433280
  0.550400,-17.822280
  0.553600,-17.156280
  0.556800,-16.472280
  0.560000,-15.800280
  0.563200,-15.165280
  0.566400,-14.575280
  0.569600,-14.024280
  0.572800,-13.481280
  0.576000,-12.937280
  0.579200,-12.410280
  0.582400,-11.936280
  0.585600,-11.546280
  0.588800,-11.227280
  0.592000,-10.948280
  0.595200,-10.680280
  0.598400,-10.439280
  0.601600,-10.230280
  0.604800,-10.055280
  0.608000, -9.934280
  0.611200, -9.835280
  0.614400, -9.739280
  0.617600, -9.614280
  0.620800, -9.448280
  0.624000, -9.273280
  0.627200, -9.116280
  0.630400, -9.001280
  0.633600, -8.906280
  0.636800, -8.798280
  0.640000, -8.663280
  0.643200, -8.507280
  0.646400, -8.334280
  0.649600, -8.149280
  0.652800, -7.944280
  0.656000, -7.721280
  0.659200, -7.514280
  0.662400, -7.330280
  0.665600, -7.192280
  0.668800, -7.076280
  0.672000, -6.947280
  0.675200, -6.765280
  0.678400, -6.527280
  0.681600, -6.266280
  0.684800, -6.028280
  0.688000, -5.857280
  0.691200, -5.760280
  0.694400, -5.678280
  0.697600, -5.546280
  0.700800, -5.346280
  0.704000, -5.106280
  0.707200, -4.897280
  0.710400, -4.753280
  0.713600, -4.674280
  0.716800, -4.614280
  0.720000, -4.542280
  0.723200, -4.446280
  0.726400, -4.341280
  0.729600, -4.228280
  0.732800, -4.105280
  0.736000, -3.989280
  0.739200, -3.909280
  0.742400, -3.875280
  0.745600, -3.893280
  0.748800, -3.927280
  0.752000, -3.964280
  0.755200, -4.013280
  0.758400, -4.061280
  0.761600, -4.072280
  0.764800, -4.029280
  0.768000, -3.941280
  0.771200, -3.853280
  0.774400, -3.816280
  0.777600, -3.834280
  0.780800, -3.884280
  0.784000, -3.922280
  0.787200, -3.901280
  0.790400, -3.812280
  0.793600, -3.690280
  0.796800, -3.565280
  0.800000, -3.470280
  0.803200, -3.379280
  0.806400, -3.275280
  0.809600, -3.164280
  0.812800, -3.056280
  0.816000, -2.965280
  0.819200, -2.850280
  0.822400, -2.683280
  0.825600, -2.477280
  0.828800, -2.271280
  0.832000, -2.119280
  0.835200, -2.029280
  0.838400, -1.987280
  0.841600, -1.947280
  0.844800, -1.865280
  0.848000, -1.737280
  0.851200, -1.580280
  0.854400, -1.441280
  0.857600, -1.329280
  0.860800, -1.238280
  0.864000, -1.148280
  0.867200, -1.061280
  0.870400, -0.988280
  0.873600, -0.923280
  0.876800, -0.859280
  0.880000, -0.801280
  0.883200, -0.747280
  0.886400, -0.706280
  0.889600, -0.681280
  0.892800, -0.662280
  0.896000, -0.625280
  0.899200, -0.576280
  0.902400, -0.528280
  0.905600, -0.486280
  0.908800, -0.465280
  0.912000, -0.459280
  0.915200, -0.462280
  0.918400, -0.460280
  0.921600, -0.445280
  0.924800, -0.423280
  0.928000, -0.402280
  0.931200, -0.385280
  0.934400, -0.380280
  0.937600, -0.392280
  0.940800, -0.402280
  0.944000, -0.398280
  0.947200, -0.377280
  0.950400, -0.354280
  0.953600, -0.344280
  0.956800, -0.363280
  0.960000, -0.421280
  0.963200, -0.491280
  0.966400, -0.540280
  0.969600, -0.552280
  0.972800, -0.523280
  0.976000, -0.471280
  0.979200, -0.415280
  0.982400, -0.386280
  0.985600, -0.396280
  0.988800, -0.435280
  0.992000, -0.477280
  0.995200, -0.518280
  0.998400, -0.543280
  1.001600, -0.554280
  1.004800, -0.555280
  1.008000, -0.556280
  1.011200, -0.541280
  1.014400, -0.514280
  1.017600, -0.470280
  1.020800, -0.416280
  1.024000, -0.369280
  1.027200, -0.343280
  1.030400, -0.345280
  1.033600, -0.380280
  1.036800, -0.433280
  1.040000, -0.482280
  1.043200, -0.516280
  1.046400, -0.508280
  1.049600, -0.462280
  1.052800, -0.390280
  1.056000, -0.311280
  1.059200, -0.255280
  1.062400, -0.238280
  1.065600, -0.267280
  1.068800, -0.337280
  1.072000, -0.393280
  1.075200, -0.401280
  1.078400, -0.361280
  1.081600, -0.291280
  1.084800, -0.235280
  1.088000, -0.221280
  1.091200, -0.249280
  1.094400, -0.300280
  1.097600, -0.332280
  1.100800, -0.319280
  1.104000, -0.268280
  1.107200, -0.204280
  1.110400, -0.166280
  1.113600, -0.161280
  1.116800, -0.161280
  1.120000, -0.137280
  1.123200, -0.077280
  1.126400, -0.010280
  1.129600,  0.023720
  1.132800,  0.006720
  1.136000, -0.021280
  1.139200, -0.022280
  1.142400, -0.009280
  1.145600, -0.020280
  1.148800, -0.053280
  1.152000, -0.100280
  1.155200, -0.107280
  1.158400, -0.075280
  1.161600, -0.031280
  1.164800, -0.005280
  1.168000, -0.007280
  1.171200, -0.042280
  1.174400, -0.076280
  1.177600, -0.095280
  1.180800, -0.096280
  1.184000, -0.100280
  1.187200, -0.116280
  1.190400, -0.156280
  1.193600, -0.193280
  1.196800, -0.222280
  1.200000, -0.227280
  1.203200, -0.212280
  1.206400, -0.198280
  1.209600, -0.198280
  1.212800, -0.221280
  1.216000, -0.240280
  1.219200, -0.229280
  1.222400, -0.202280
  1.225600, -0.163280
  1.228800, -0.120280
  1.232000, -0.093280
  1.235200, -0.091280
  1.238400, -0.108280
  1.241600, -0.119280
  1.244800, -0.112280
  1.248000, -0.077280
  1.251200, -0.021280
  1.254400,  0.043720
  1.257600,  0.094720
  1.260800,  0.108720
  1.264000,  0.085720
  1.267200,  0.050720
  1.270400,  0.007720
  1.273600, -0.050280
  1.276800, -0.116280
  1.280000, -0.185280
  1.283200, -0.223280
  1.286400, -0.215280
  1.289600, -0.168280
  1.292800, -0.104280
  1.296000, -0.050280
  1.299200, -0.016280
  1.302400, -0.011280
  1.305600, -0.028280
  1.308800, -0.051280
  1.312000, -0.069280
  1.315200, -0.069280
  1.318400, -0.051280
  1.321600, -0.027280
  1.324800, -0.015280
  1.328000, -0.029280
  1.331200, -0.056280
  1.334400, -0.088280
  1.337600, -0.115280
  1.340800, -0.155280
  1.344000, -0.190280
  1.347200, -0.215280
  1.350400, -0.220280
  1.353600, -0.206280
  1.356800, -0.167280
  1.360000, -0.120280
  1.363200, -0.090280
  1.366400, -0.100280
  1.369600, -0.137280
  1.372800, -0.171280
  1.376000, -0.181280
  1.379200, -0.160280
  1.382400, -0.094280
  1.385600, -0.001280
  1.388800,  0.092720
  1.392000,  0.155720
  1.395200,  0.163720
  1.398400,  0.118720
  1.401600,  0.068720
  1.404800,  0.071720
  1.408000,  0.127720
  1.411200,  0.182720
  1.414400,  0.199720
  1.417600,  0.190720
  1.420800,  0.194720
  1.424000,  0.224720
  1.427200,  0.260720
  1.430400,  0.282720
  1.433600,  0.254720
  1.436800,  0.204720
  1.440000,  0.173720
  1.443200,  0.171720
  1.446400,  0.198720
  1.449600,  0.227720
  1.452800,  0.238720
  1.456000,  0.222720
  1.459200,  0.197720
  1.462400,  0.169720
  1.465600,  0.141720
  1.468800,  0.110720
  1.472000,  0.092720
  1.475200,  0.096720
  1.478400,  0.114720
  1.481600,  0.149720
  1.484800,  0.168720
  1.488000,  0.170720
  1.491200,  0.141720
  1.494400,  0.072720
  1.497600, -0.006280
  1.500800, -0.057280
  1.504000, -0.045280
  1.507200,  0.021720
  1.510400,  0.095720
  1.513600,  0.132720
  1.516800,  0.121720
  1.520000,  0.094720
  1.523200,  0.086720
  1.526400,  0.084720
  1.529600,  0.050720
  1.532800, -0.027280
  1.536000, -0.112280
  1.539200, -0.156280
  1.542400, -0.138280
  1.545600, -0.092280
  1.548800, -0.055280
  1.552000, -0.054280
  1.555200, -0.077280
  1.558400, -0.113280
  1.561600, -0.144280
  1.564800, -0.174280
  1.568000, -0.194280
  1.571200, -0.185280
  1.574400, -0.137280
  1.577600, -0.068280
  1.580800, -0.032280
  1.584000, -0.078280
  1.587200, -0.186280
  1.590400, -0.297280
  1.593600, -0.345280
  1.596800, -0.322280
  1.600000, -0.275280
