# z (nm)   (kJ/mol)
  0.5230   25.37590
  0.5250   24.99900
  0.5270   24.61140
  0.5290   24.23250
  0.5310   23.84970
  0.5330   23.44940
  0.5350   23.04640
  0.5370   22.63780
  0.5390   22.21110
  0.5410   21.77560
  0.5430   21.33670
  0.5450   20.89430
  0.5470   20.44970
  0.5490   20.00890
  0.5510   19.57000
  0.5530   19.13140
  0.5550   18.70070
  0.5570   18.26620
  0.5590   17.82170
  0.5610   17.37990
  0.5630   16.94890
  0.5650   16.52410
  0.5670   16.10090
  0.5690   15.67930
  0.5710   15.27010
  0.5730   14.87050
  0.5750   14.46940
  0.5770   14.07450
  0.5790   13.68600
  0.5810   13.30840
  0.5830   12.94450
  0.5850   12.58970
  0.5870   12.24030
  0.5890   11.89860
  0.5910   11.56830
  0.5930   11.24690
  0.5950   10.93630
  0.5970   10.63500
  0.5990   10.34130
  0.6010   10.05570
  0.6030    9.78080
  0.6050    9.51750
  0.6070    9.26330
  0.6090    9.01600
  0.6110    8.77700
  0.6130    8.54620
  0.6150    8.32270
  0.6170    8.10730
  0.6190    7.89790
  0.6210    7.69710
  0.6230    7.50480
  0.6250    7.31750
  0.6270    7.13620
  0.6290    6.96170
  0.6310    6.79300
  0.6330    6.62920
  0.6350    6.47010
  0.6370    6.31660
  0.6390    6.16760
  0.6410    6.02100
  0.6430    5.87810
  0.6450    5.74010
  0.6470    5.60550
  0.6490    5.47400
  0.6510    5.34460
  0.6530    5.21770
  0.6550    5.09380
  0.6570    4.97200
  0.6590    4.85220
  0.6610    4.73400
  0.6630    4.61630
  0.6650    4.50020
  0.6670    4.38630
  0.6690    4.27280
  0.6710    4.15940
  0.6730    4.04630
  0.6750    3.93280
  0.6770    3.81910
  0.6790    3.70500
  0.6810    3.59080
  0.6830    3.47640
  0.6850    3.36220
  0.6870    3.24750
  0.6890    3.13140
  0.6910    3.01520
  0.6930    2.89900
  0.6950    2.78210
  0.6970    2.66510
  0.6990    2.54800
  0.7010    2.43070
  0.7030    2.31340
  0.7050    2.19590
  0.7070    2.07790
  0.7090    1.96010
  0.7110    1.84320
  0.7130    1.72690
  0.7150    1.61150
  0.7170    1.49680
  0.7190    1.38290
  0.7210    1.27090
  0.7230    1.16090
  0.7250    1.05260
  0.7270    0.94560
  0.7290    0.84050
  0.7310    0.73770
  0.7330    0.63710
  0.7350    0.53930
  0.7370    0.44400
  0.7390    0.35110
  0.7410    0.26130
  0.7430    0.17410
  0.7450    0.08960
  0.7470    0.00840
  0.7490   -0.06940
  0.7510   -0.14400
  0.7530   -0.21550
  0.7550   -0.28380
  0.7570   -0.34890
  0.7590   -0.41070
  0.7610   -0.46940
  0.7630   -0.52460
  0.7650   -0.57660
  0.7670   -0.62530
  0.7690   -0.67080
  0.7710   -0.71300
  0.7730   -0.75230
  0.7750   -0.78860
  0.7770   -0.82170
  0.7790   -0.85180
  0.7810   -0.87900
  0.7830   -0.90350
  0.7850   -0.92560
  0.7870   -0.94500
  0.7890   -0.96170
  0.7910   -0.97620
  0.7930   -0.98860
  0.7950   -0.99860
  0.7970   -1.00640
  0.7990   -1.01220
  0.8010   -1.01600
  0.8030   -1.01800
  0.8050   -1.01820
  0.8070   -1.01700
  0.8090   -1.01430
  0.8110   -1.01000
  0.8130   -1.00430
  0.8150   -0.99750
  0.8170   -0.98940
  0.8190   -0.98010
  0.8210   -0.96970
  0.8230   -0.95840
  0.8250   -0.94610
  0.8270   -0.93290
  0.8290   -0.91900
  0.8310   -0.90410
  0.8330   -0.88850
  0.8350   -0.87230
  0.8370   -0.85550
  0.8390   -0.83820
  0.8410   -0.82030
  0.8430   -0.80190
  0.8450   -0.78310
  0.8470   -0.76370
  0.8490   -0.74380
  0.8510   -0.72350
  0.8530   -0.70270
  0.8550   -0.68160
  0.8570   -0.66030
  0.8590   -0.63860
  0.8610   -0.61660
  0.8630   -0.59420
  0.8650   -0.57170
  0.8670   -0.54890
  0.8690   -0.52590
  0.8710   -0.50270
  0.8730   -0.47930
  0.8750   -0.45570
  0.8770   -0.43200
  0.8790   -0.40820
  0.8810   -0.38420
  0.8830   -0.36030
  0.8850   -0.33620
  0.8870   -0.31220
  0.8890   -0.28810
  0.8910   -0.26400
  0.8930   -0.24000
  0.8950   -0.21610
  0.8970   -0.19220
  0.8990   -0.16830
  0.9010   -0.14460
  0.9030   -0.12110
  0.9050   -0.09770
  0.9070   -0.07470
  0.9090   -0.05190
  0.9110   -0.02920
  0.9130   -0.00690
  0.9150    0.01510
  0.9170    0.03680
  0.9190    0.05820
  0.9210    0.07910
  0.9230    0.09960
  0.9250    0.11970
  0.9270    0.13940
  0.9290    0.15860
  0.9310    0.17730
  0.9330    0.19550
  0.9350    0.21310
  0.9370    0.23000
  0.9390    0.24640
  0.9410    0.26230
  0.9430    0.27750
  0.9450    0.29210
  0.9470    0.30600
  0.9490    0.31940
  0.9510    0.33210
  0.9530    0.34420
  0.9550    0.35570
  0.9570    0.36630
  0.9590    0.37610
  0.9610    0.38520
  0.9630    0.39360
  0.9650    0.40120
  0.9670    0.40820
  0.9690    0.41440
  0.9710    0.42000
  0.9730    0.42500
  0.9750    0.42930
  0.9770    0.43270
  0.9790    0.43530
  0.9810    0.43740
  0.9830    0.43870
  0.9850    0.43930
  0.9870    0.43920
  0.9890    0.43850
  0.9910    0.43720
  0.9930    0.43510
  0.9950    0.43220
  0.9970    0.42870
  0.9990    0.42460
  1.0010    0.42000
  1.0030    0.41470
  1.0050    0.40870
  1.0070    0.40210
  1.0090    0.39510
  1.0110    0.38750
  1.0130    0.37930
  1.0150    0.37050
  1.0170    0.36130
  1.0190    0.35160
  1.0210    0.34150
  1.0230    0.33090
  1.0250    0.31960
  1.0270    0.30820
  1.0290    0.29650
  1.0310    0.28420
  1.0330    0.27160
  1.0350    0.25880
  1.0370    0.24580
  1.0390    0.23250
  1.0410    0.21890
  1.0430    0.20500
  1.0450    0.19070
  1.0470    0.17610
  1.0490    0.16160
  1.0510    0.14700
  1.0530    0.13210
  1.0550    0.11720
  1.0570    0.10230
  1.0590    0.08750
  1.0610    0.07270
  1.0630    0.05790
  1.0650    0.04300
  1.0670    0.02820
  1.0690    0.01350
  1.0710   -0.00130
  1.0730   -0.01590
  1.0750   -0.03020
  1.0770   -0.04440
  1.0790   -0.05850
  1.0810   -0.07240
  1.0830   -0.08600
  1.0850   -0.09940
  1.0870   -0.11250
  1.0890   -0.12530
  1.0910   -0.13780
  1.0930   -0.14990
  1.0950   -0.16180
  1.0970   -0.17330
  1.0990   -0.18450
  1.1010   -0.19540
  1.1030   -0.20580
  1.1050   -0.21590
  1.1070   -0.22560
  1.1090   -0.23490
  1.1110   -0.24390
  1.1130   -0.25240
  1.1150   -0.26050
  1.1170   -0.26820
  1.1190   -0.27550
  1.1210   -0.28230
  1.1230   -0.28870
  1.1250   -0.29460
  1.1270   -0.30000
  1.1290   -0.30510
  1.1310   -0.30970
  1.1330   -0.31390
  1.1350   -0.31790
  1.1370   -0.32140
  1.1390   -0.32440
  1.1410   -0.32710
  1.1430   -0.32930
  1.1450   -0.33110
  1.1470   -0.33250
  1.1490   -0.33340
  1.1510   -0.33390
  1.1530   -0.33410
  1.1550   -0.33400
  1.1570   -0.33350
  1.1590   -0.33270
  1.1610   -0.33140
  1.1630   -0.32970
  1.1650   -0.32780
  1.1670   -0.32540
  1.1690   -0.32260
  1.1710   -0.31950
  1.1730   -0.31600
  1.1750   -0.31230
  1.1770   -0.30820
  1.1790   -0.30390
  1.1810   -0.29920
  1.1830   -0.29430
  1.1850   -0.28920
  1.1870   -0.28370
  1.1890   -0.27790
  1.1910   -0.27200
  1.1930   -0.26580
  1.1950   -0.25930
  1.1970   -0.25270
  1.1990   -0.24590
  1.2010   -0.23900
  1.2030   -0.23190
  1.2050   -0.22460
  1.2070   -0.21710
  1.2090   -0.20950
  1.2110   -0.20190
  1.2130   -0.19420
  1.2150   -0.18640
  1.2170   -0.17840
  1.2190   -0.17050
  1.2210   -0.16250
  1.2230   -0.15460
  1.2250   -0.14670
  1.2270   -0.13870
  1.2290   -0.13070
  1.2310   -0.12280
  1.2330   -0.11490
  1.2350   -0.10710
  1.2370   -0.09940
  1.2390   -0.09180
  1.2410   -0.08430
  1.2430   -0.07700
  1.2450   -0.06970
  1.2470   -0.06260
  1.2490   -0.05570
  1.2510   -0.04890
  1.2530   -0.04220
  1.2550   -0.03580
  1.2570   -0.02960
  1.2590   -0.02360
  1.2610   -0.01790
  1.2630   -0.01240
  1.2650   -0.00720
  1.2670   -0.00230
  1.2690    0.00250
  1.2710    0.00710
  1.2730    0.01150
  1.2750    0.01550
  1.2770    0.01930
  1.2790    0.02290
  1.2810    0.02620
  1.2830    0.02930
  1.2850    0.03220
  1.2870    0.03480
  1.2890    0.03710
  1.2910    0.03930
  1.2930    0.04120
  1.2950    0.04290
  1.2970    0.04440
  1.2990    0.04570
  1.3010    0.04690
  1.3030    0.04790
  1.3050    0.04870
  1.3070    0.04930
  1.3090    0.04980
  1.3110    0.05030
  1.3130    0.05050
  1.3150    0.05070
  1.3170    0.05080
  1.3190    0.05090
  1.3210    0.05100
  1.3230    0.05110
  1.3250    0.05100
  1.3270    0.05100
  1.3290    0.05110
  1.3310    0.05130
  1.3330    0.05160
  1.3350    0.05180
  1.3370    0.05210
  1.3390    0.05250
  1.3410    0.05310
  1.3430    0.05370
  1.3450    0.05450
  1.3470    0.05560
  1.3490    0.05690
  1.3510    0.05830
  1.3530    0.05990
  1.3550    0.06170
  1.3570    0.06370
  1.3590    0.06580
  1.3610    0.06810
  1.3630    0.07060
  1.3650    0.07350
  1.3670    0.07650
  1.3690    0.07970
  1.3710    0.08310
  1.3730    0.08670
  1.3750    0.09040
  1.3770    0.09420
  1.3790    0.09830
  1.3810    0.10260
  1.3830    0.10690
  1.3850    0.11130
  1.3870    0.11560
  1.3890    0.11980
  1.3910    0.12410
  1.3930    0.12830
  1.3950    0.13240
  1.3970    0.13620
  1.3990    0.13950
