# z (nm)   (kJ/mol)
  0.3210   13.58680
  0.3230   13.09770
  0.3250   12.54590
  0.3270   11.97920
  0.3290   11.39580
  0.3310   10.81550
  0.3330   10.22850
  0.3350    9.63740
  0.3370    9.03460
  0.3390    8.42750
  0.3410    7.82600
  0.3430    7.22420
  0.3450    6.62700
  0.3470    6.03750
  0.3490    5.45470
  0.3510    4.86600
  0.3530    4.27830
  0.3550    3.70170
  0.3570    3.13270
  0.3590    2.56900
  0.3610    2.00920
  0.3630    1.46520
  0.3650    0.93420
  0.3670    0.41100
  0.3690   -0.09950
  0.3710   -0.59220
  0.3730   -1.07170
  0.3750   -1.54330
  0.3770   -2.00360
  0.3790   -2.44440
  0.3810   -2.86900
  0.3830   -3.28300
  0.3850   -3.68060
  0.3870   -4.06460
  0.3890   -4.43650
  0.3910   -4.79490
  0.3930   -5.13810
  0.3950   -5.46600
  0.3970   -5.78010
  0.3990   -6.08100
  0.4010   -6.36860
  0.4030   -6.64070
  0.4050   -6.89710
  0.4070   -7.13950
  0.4090   -7.36760
  0.4110   -7.58210
  0.4130   -7.78400
  0.4150   -7.97260
  0.4170   -8.14760
  0.4190   -8.30870
  0.4210   -8.45570
  0.4230   -8.59000
  0.4250   -8.71160
  0.4270   -8.82230
  0.4290   -8.92220
  0.4310   -9.00890
  0.4330   -9.08230
  0.4350   -9.14500
  0.4370   -9.19790
  0.4390   -9.23970
  0.4410   -9.27190
  0.4430   -9.29580
  0.4450   -9.31200
  0.4470   -9.31950
  0.4490   -9.31710
  0.4510   -9.30670
  0.4530   -9.29040
  0.4550   -9.26790
  0.4570   -9.24050
  0.4590   -9.20720
  0.4610   -9.16800
  0.4630   -9.12470
  0.4650   -9.07620
  0.4670   -9.02210
  0.4690   -8.96400
  0.4710   -8.90250
  0.4730   -8.83770
  0.4750   -8.76920
  0.4770   -8.69830
  0.4790   -8.62770
  0.4810   -8.55560
  0.4830   -8.48120
  0.4850   -8.40530
  0.4870   -8.32760
  0.4890   -8.24880
  0.4910   -8.16930
  0.4930   -8.08810
  0.4950   -8.00640
  0.4970   -7.92470
  0.4990   -7.84160
  0.5010   -7.75780
  0.5030   -7.67380
  0.5050   -7.58930
  0.5070   -7.50400
  0.5090   -7.41820
  0.5110   -7.33160
  0.5130   -7.24430
  0.5150   -7.15670
  0.5170   -7.06850
  0.5190   -6.97960
  0.5210   -6.88990
  0.5230   -6.79940
  0.5250   -6.70830
  0.5270   -6.61610
  0.5290   -6.52280
  0.5310   -6.42890
  0.5330   -6.33450
  0.5350   -6.23920
  0.5370   -6.14300
  0.5390   -6.04570
  0.5410   -5.94730
  0.5430   -5.84800
  0.5450   -5.74790
  0.5470   -5.64700
  0.5490   -5.54520
  0.5510   -5.44280
  0.5530   -5.33990
  0.5550   -5.23700
  0.5570   -5.13330
  0.5590   -5.02880
  0.5610   -4.92360
  0.5630   -4.81850
  0.5650   -4.71340
  0.5670   -4.60800
  0.5690   -4.50240
  0.5710   -4.39710
  0.5730   -4.29180
  0.5750   -4.18660
  0.5770   -4.08190
  0.5790   -3.97750
  0.5810   -3.87360
  0.5830   -3.77030
  0.5850   -3.66780
  0.5870   -3.56610
  0.5890   -3.46560
  0.5910   -3.36590
  0.5930   -3.26690
  0.5950   -3.16910
  0.5970   -3.07260
  0.5990   -2.97730
  0.6010   -2.88330
  0.6030   -2.79090
  0.6050   -2.69980
  0.6070   -2.61010
  0.6090   -2.52210
  0.6110   -2.43590
  0.6130   -2.35160
  0.6150   -2.26900
  0.6170   -2.18830
  0.6190   -2.10940
  0.6210   -2.03210
  0.6230   -1.95680
  0.6250   -1.88360
  0.6270   -1.81250
  0.6290   -1.74320
  0.6310   -1.67600
  0.6330   -1.61100
  0.6350   -1.54820
  0.6370   -1.48730
  0.6390   -1.42840
  0.6410   -1.37190
  0.6430   -1.31750
  0.6450   -1.26490
  0.6470   -1.21450
  0.6490   -1.16620
  0.6510   -1.11990
  0.6530   -1.07580
  0.6550   -1.03390
  0.6570   -0.99390
  0.6590   -0.95610
  0.6610   -0.92040
  0.6630   -0.88650
  0.6650   -0.85470
  0.6670   -0.82500
  0.6690   -0.79720
  0.6710   -0.77120
  0.6730   -0.74700
  0.6750   -0.72480
  0.6770   -0.70440
  0.6790   -0.68580
  0.6810   -0.66880
  0.6830   -0.65370
  0.6850   -0.64050
  0.6870   -0.62890
  0.6890   -0.61850
  0.6910   -0.60970
  0.6930   -0.60260
  0.6950   -0.59710
  0.6970   -0.59280
  0.6990   -0.58990
  0.7010   -0.58870
  0.7030   -0.58880
  0.7050   -0.59010
  0.7070   -0.59260
  0.7090   -0.59590
  0.7110   -0.60050
  0.7130   -0.60620
  0.7150   -0.61280
  0.7170   -0.62030
  0.7190   -0.62870
  0.7210   -0.63790
  0.7230   -0.64780
  0.7250   -0.65830
  0.7270   -0.66960
  0.7290   -0.68150
  0.7310   -0.69380
  0.7330   -0.70650
  0.7350   -0.71960
  0.7370   -0.73300
  0.7390   -0.74690
  0.7410   -0.76100
  0.7430   -0.77520
  0.7450   -0.78950
  0.7470   -0.80390
  0.7490   -0.81810
  0.7510   -0.83230
  0.7530   -0.84640
  0.7550   -0.86030
  0.7570   -0.87390
  0.7590   -0.88720
  0.7610   -0.90040
  0.7630   -0.91330
  0.7650   -0.92570
  0.7670   -0.93790
  0.7690   -0.94940
  0.7710   -0.96020
  0.7730   -0.97070
  0.7750   -0.98050
  0.7770   -0.98980
  0.7790   -0.99870
  0.7810   -1.00690
  0.7830   -1.01420
  0.7850   -1.02100
  0.7870   -1.02740
  0.7890   -1.03280
  0.7910   -1.03750
  0.7930   -1.04170
  0.7950   -1.04540
  0.7970   -1.04810
  0.7990   -1.05000
  0.8010   -1.05110
  0.8030   -1.05160
  0.8050   -1.05150
  0.8070   -1.05060
  0.8090   -1.04900
  0.8110   -1.04680
  0.8130   -1.04390
  0.8150   -1.04040
  0.8170   -1.03640
  0.8190   -1.03180
  0.8210   -1.02670
  0.8230   -1.02070
  0.8250   -1.01400
  0.8270   -1.00710
  0.8290   -0.99940
  0.8310   -0.99090
  0.8330   -0.98180
  0.8350   -0.97240
  0.8370   -0.96260
  0.8390   -0.95220
  0.8410   -0.94120
  0.8430   -0.92970
  0.8450   -0.91820
  0.8470   -0.90610
  0.8490   -0.89350
  0.8510   -0.88060
  0.8530   -0.86750
  0.8550   -0.85410
  0.8570   -0.84040
  0.8590   -0.82620
  0.8610   -0.81180
  0.8630   -0.79700
  0.8650   -0.78200
  0.8670   -0.76660
  0.8690   -0.75130
  0.8710   -0.73590
  0.8730   -0.72020
  0.8750   -0.70420
  0.8770   -0.68820
  0.8790   -0.67180
  0.8810   -0.65540
  0.8830   -0.63910
  0.8850   -0.62270
  0.8870   -0.60610
  0.8890   -0.58960
  0.8910   -0.57330
  0.8930   -0.55700
  0.8950   -0.54070
  0.8970   -0.52440
  0.8990   -0.50800
  0.9010   -0.49180
  0.9030   -0.47570
  0.9050   -0.45970
  0.9070   -0.44380
  0.9090   -0.42800
  0.9110   -0.41250
  0.9130   -0.39720
  0.9150   -0.38210
  0.9170   -0.36720
  0.9190   -0.35260
  0.9210   -0.33830
  0.9230   -0.32400
  0.9250   -0.31010
  0.9270   -0.29650
  0.9290   -0.28310
  0.9310   -0.27010
  0.9330   -0.25750
  0.9350   -0.24530
  0.9370   -0.23340
  0.9390   -0.22190
  0.9410   -0.21080
  0.9430   -0.20000
  0.9450   -0.18960
  0.9470   -0.17960
  0.9490   -0.16990
  0.9510   -0.16080
  0.9530   -0.15210
  0.9550   -0.14360
  0.9570   -0.13560
  0.9590   -0.12810
  0.9610   -0.12090
  0.9630   -0.11420
  0.9650   -0.10790
  0.9670   -0.10180
  0.9690   -0.09620
  0.9710   -0.09090
  0.9730   -0.08600
  0.9750   -0.08150
  0.9770   -0.07730
  0.9790   -0.07350
  0.9810   -0.07010
  0.9830   -0.06680
  0.9850   -0.06370
  0.9870   -0.06110
  0.9890   -0.05880
  0.9910   -0.05690
  0.9930   -0.05500
  0.9950   -0.05340
  0.9970   -0.05220
  0.9990   -0.05130
  1.0010   -0.05060
  1.0030   -0.05010
  1.0050   -0.04980
  1.0070   -0.04980
  1.0090   -0.05010
  1.0110   -0.05040
  1.0130   -0.05100
  1.0150   -0.05160
  1.0170   -0.05230
  1.0190   -0.05330
  1.0210   -0.05410
  1.0230   -0.05490
  1.0250   -0.05600
  1.0270   -0.05740
  1.0290   -0.05870
  1.0310   -0.06010
  1.0330   -0.06150
  1.0350   -0.06300
  1.0370   -0.06460
  1.0390   -0.06620
  1.0410   -0.06800
  1.0430   -0.06990
  1.0450   -0.07180
  1.0470   -0.07360
  1.0490   -0.07530
  1.0510   -0.07730
  1.0530   -0.07910
  1.0550   -0.08100
  1.0570   -0.08300
  1.0590   -0.08500
  1.0610   -0.08700
  1.0630   -0.08890
  1.0650   -0.09070
  1.0670   -0.09250
  1.0690   -0.09440
  1.0710   -0.09610
  1.0730   -0.09760
  1.0750   -0.09950
  1.0770   -0.10130
  1.0790   -0.10300
  1.0810   -0.10480
  1.0830   -0.10650
  1.0850   -0.10830
  1.0870   -0.11000
  1.0890   -0.11150
  1.0910   -0.11310
  1.0930   -0.11460
  1.0950   -0.11610
  1.0970   -0.11750
  1.0990   -0.11860
  1.1010   -0.11950
  1.1030   -0.12040
  1.1050   -0.12120
  1.1070   -0.12190
  1.1090   -0.12260
  1.1110   -0.12330
  1.1130   -0.12380
  1.1150   -0.12410
  1.1170   -0.12440
  1.1190   -0.12450
  1.1210   -0.12440
  1.1230   -0.12420
  1.1250   -0.12380
  1.1270   -0.12320
  1.1290   -0.12230
  1.1310   -0.12130
  1.1330   -0.12020
  1.1350   -0.11890
  1.1370   -0.11740
  1.1390   -0.11580
  1.1410   -0.11410
  1.1430   -0.11240
  1.1450   -0.11030
  1.1470   -0.10810
  1.1490   -0.10580
  1.1510   -0.10330
  1.1530   -0.10060
  1.1550   -0.09760
  1.1570   -0.09450
  1.1590   -0.09140
  1.1610   -0.08820
  1.1630   -0.08490
  1.1650   -0.08150
  1.1670   -0.07790
  1.1690   -0.07430
  1.1710   -0.07080
  1.1730   -0.06720
  1.1750   -0.06350
  1.1770   -0.05980
  1.1790   -0.05610
  1.1810   -0.05240
  1.1830   -0.04870
  1.1850   -0.04510
  1.1870   -0.04150
  1.1890   -0.03790
  1.1910   -0.03420
  1.1930   -0.03060
  1.1950   -0.02720
  1.1970   -0.02380
  1.1990   -0.02060
  1.2010   -0.01730
  1.2030   -0.01430
  1.2050   -0.01140
  1.2070   -0.00860
  1.2090   -0.00580
  1.2110   -0.00320
  1.2130   -0.00090
  1.2150    0.00140
  1.2170    0.00340
  1.2190    0.00530
  1.2210    0.00710
  1.2230    0.00870
  1.2250    0.01010
  1.2270    0.01140
  1.2290    0.01250
  1.2310    0.01360
  1.2330    0.01450
  1.2350    0.01500
  1.2370    0.01540
  1.2390    0.01580
  1.2410    0.01590
  1.2430    0.01590
  1.2450    0.01570
  1.2470    0.01540
  1.2490    0.01500
  1.2510    0.01440
  1.2530    0.01380
  1.2550    0.01320
  1.2570    0.01250
  1.2590    0.01160
  1.2610    0.01060
  1.2630    0.00940
  1.2650    0.00820
  1.2670    0.00700
  1.2690    0.00590
  1.2710    0.00450
  1.2730    0.00320
  1.2750    0.00190
  1.2770    0.00070
  1.2790   -0.00060
  1.2810   -0.00190
  1.2830   -0.00320
  1.2850   -0.00430
  1.2870   -0.00540
  1.2890   -0.00660
  1.2910   -0.00780
  1.2930   -0.00880
  1.2950   -0.00990
  1.2970   -0.01100
  1.2990   -0.01200
  1.3010   -0.01280
  1.3030   -0.01360
  1.3050   -0.01440
  1.3070   -0.01510
  1.3090   -0.01580
  1.3110   -0.01650
  1.3130   -0.01700
  1.3150   -0.01760
  1.3170   -0.01800
  1.3190   -0.01830
  1.3210   -0.01850
  1.3230   -0.01860
  1.3250   -0.01880
  1.3270   -0.01890
  1.3290   -0.01880
  1.3310   -0.01850
  1.3330   -0.01830
  1.3350   -0.01790
  1.3370   -0.01740
  1.3390   -0.01680
  1.3410   -0.01600
  1.3430   -0.01530
  1.3450   -0.01450
  1.3470   -0.01340
  1.3490   -0.01230
  1.3510   -0.01110
  1.3530   -0.00970
  1.3550   -0.00820
  1.3570   -0.00680
  1.3590   -0.00520
  1.3610   -0.00360
  1.3630   -0.00190
  1.3650   -0.00020
  1.3670    0.00150
  1.3690    0.00340
  1.3710    0.00550
  1.3730    0.00770
  1.3750    0.00980
  1.3770    0.01180
  1.3790    0.01390
  1.3810    0.01600
  1.3830    0.01810
  1.3850    0.02010
  1.3870    0.02210
  1.3890    0.02390
  1.3910    0.02520
  1.3930    0.02630
  1.3950    0.02690
  1.3970    0.02740
  1.3990    0.02780
