# z (nm)   (kJ/mol)
  0.267000, 11.641600
  0.273000, 10.754700
  0.275000, 10.264500
  0.277000,  9.742600
  0.279000,  9.184100
  0.281000,  8.609900
  0.283000,  8.061800
  0.285000,  7.511700
  0.287000,  6.928600
  0.289000,  6.336800
  0.291000,  5.749000
  0.293000,  5.156900
  0.295000,  4.564900
  0.297000,  3.976700
  0.299000,  3.380900
  0.301000,  2.781600
  0.303000,  2.194900
  0.305000,  1.614700
  0.307000,  1.033500
  0.309000,  0.452700
  0.311000, -0.122700
  0.313000, -0.688800
  0.315000, -1.243800
  0.317000, -1.789600
  0.319000, -2.328200
  0.321000, -2.857900
  0.323000, -3.377900
  0.325000, -3.890400
  0.327000, -4.387400
  0.329000, -4.867600
  0.331000, -5.335000
  0.333000, -5.789100
  0.335000, -6.230600
  0.337000, -6.659100
  0.339000, -7.074000
  0.341000, -7.473200
  0.343000, -7.857300
  0.345000, -8.224900
  0.347000, -8.576600
  0.349000, -8.912200
  0.351000, -9.230500
  0.353000, -9.532200
  0.355000, -9.815400
  0.357000,-10.080800
  0.359000,-10.328600
  0.361000,-10.558300
  0.363000,-10.770700
  0.365000,-10.965000
  0.367000,-11.141500
  0.369000,-11.300900
  0.371000,-11.442500
  0.373000,-11.566600
  0.375000,-11.673400
  0.377000,-11.763400
  0.379000,-11.836100
  0.381000,-11.891900
  0.383000,-11.932600
  0.385000,-11.956500
  0.387000,-11.964500
  0.389000,-11.957300
  0.391000,-11.935500
  0.393000,-11.901100
  0.395000,-11.854200
  0.397000,-11.795300
  0.399000,-11.724000
  0.401000,-11.639800
  0.403000,-11.544700
  0.405000,-11.439900
  0.407000,-11.325300
  0.409000,-11.201900
  0.411000,-11.070600
  0.413000,-10.932000
  0.415000,-10.785800
  0.417000,-10.633400
  0.419000,-10.475000
  0.421000,-10.311500
  0.423000,-10.144200
  0.425000, -9.973700
  0.427000, -9.800000
  0.429000, -9.622600
  0.431000, -9.442700
  0.433000, -9.260800
  0.435000, -9.077100
  0.437000, -8.892100
  0.439000, -8.705900
  0.441000, -8.518700
  0.443000, -8.330800
  0.445000, -8.142400
  0.447000, -7.953800
  0.449000, -7.764900
  0.451000, -7.575800
  0.453000, -7.386600
  0.455000, -7.197300
  0.457000, -7.008400
  0.459000, -6.819600
  0.461000, -6.630600
  0.463000, -6.441800
  0.465000, -6.253300
  0.467000, -6.064900
  0.469000, -5.876600
  0.471000, -5.688400
  0.473000, -5.500200
  0.475000, -5.311800
  0.477000, -5.123000
  0.479000, -4.934200
  0.481000, -4.745300
  0.483000, -4.556000
  0.485000, -4.366400
  0.487000, -4.176700
  0.489000, -3.986500
  0.491000, -3.795900
  0.493000, -3.605200
  0.495000, -3.414200
  0.497000, -3.222700
  0.499000, -3.031100
  0.501000, -2.839500
  0.503000, -2.647600
  0.505000, -2.456000
  0.507000, -2.264400
  0.509000, -2.073000
  0.511000, -1.881500
  0.513000, -1.690000
  0.515000, -1.498700
  0.517000, -1.308200
  0.519000, -1.118700
  0.521000, -0.930500
  0.523000, -0.743200
  0.525000, -0.556800
  0.527000, -0.371700
  0.529000, -0.188600
  0.531000, -0.008100
  0.533000,  0.170100
  0.535000,  0.346600
  0.537000,  0.520900
  0.539000,  0.693500
  0.541000,  0.863200
  0.543000,  1.028300
  0.545000,  1.189700
  0.547000,  1.348300
  0.549000,  1.503400
  0.551000,  1.654100
  0.553000,  1.799700
  0.555000,  1.940100
  0.557000,  2.076200
  0.559000,  2.207100
  0.561000,  2.333200
  0.563000,  2.455300
  0.565000,  2.571300
  0.567000,  2.681100
  0.569000,  2.784800
  0.571000,  2.882600
  0.573000,  2.974400
  0.575000,  3.058900
  0.577000,  3.137100
  0.579000,  3.209100
  0.581000,  3.274700
  0.583000,  3.333600
  0.585000,  3.385100
  0.587000,  3.429600
  0.589000,  3.467400
  0.591000,  3.498500
  0.593000,  3.522800
  0.595000,  3.540400
  0.597000,  3.551200
  0.599000,  3.555400
  0.601000,  3.553100
  0.603000,  3.543600
  0.605000,  3.527200
  0.607000,  3.504500
  0.609000,  3.475600
  0.611000,  3.440200
  0.613000,  3.398900
  0.615000,  3.351500
  0.617000,  3.298500
  0.619000,  3.240900
  0.621000,  3.179000
  0.623000,  3.112500
  0.625000,  3.041100
  0.627000,  2.964700
  0.629000,  2.883200
  0.631000,  2.798300
  0.633000,  2.710100
  0.635000,  2.618100
  0.637000,  2.523200
  0.639000,  2.424900
  0.641000,  2.325100
  0.643000,  2.224200
  0.645000,  2.120400
  0.647000,  2.015300
  0.649000,  1.909000
  0.651000,  1.801400
  0.653000,  1.692700
  0.655000,  1.583800
  0.657000,  1.475400
  0.659000,  1.365900
  0.661000,  1.255200
  0.663000,  1.146100
  0.665000,  1.038000
  0.667000,  0.930200
  0.669000,  0.824700
  0.671000,  0.721700
  0.673000,  0.620800
  0.675000,  0.520600
  0.677000,  0.420800
  0.679000,  0.323400
  0.681000,  0.228500
  0.683000,  0.135500
  0.685000,  0.044700
  0.687000, -0.042700
  0.689000, -0.126500
  0.691000, -0.207700
  0.693000, -0.286400
  0.695000, -0.362100
  0.697000, -0.434000
  0.699000, -0.502600
  0.701000, -0.567700
  0.703000, -0.629300
  0.705000, -0.687700
  0.707000, -0.742600
  0.709000, -0.794000
  0.711000, -0.841600
  0.713000, -0.885800
  0.715000, -0.926600
  0.717000, -0.963800
  0.719000, -0.997700
  0.721000, -1.028200
  0.723000, -1.055200
  0.725000, -1.079000
  0.727000, -1.099400
  0.729000, -1.116400
  0.731000, -1.130300
  0.733000, -1.141200
  0.735000, -1.149300
  0.737000, -1.154400
  0.739000, -1.156600
  0.741000, -1.156100
  0.743000, -1.153200
  0.745000, -1.147800
  0.747000, -1.139800
  0.749000, -1.129200
  0.751000, -1.116100
  0.753000, -1.101100
  0.755000, -1.084300
  0.757000, -1.065400
  0.759000, -1.044600
  0.761000, -1.021800
  0.763000, -0.997300
  0.765000, -0.971400
  0.767000, -0.944000
  0.769000, -0.915400
  0.771000, -0.885500
  0.773000, -0.854000
  0.775000, -0.821600
  0.777000, -0.788200
  0.779000, -0.754000
  0.781000, -0.718600
  0.783000, -0.682400
  0.785000, -0.645500
  0.787000, -0.607700
  0.789000, -0.569100
  0.791000, -0.530100
  0.793000, -0.490500
  0.795000, -0.450600
  0.797000, -0.410400
  0.799000, -0.369900
  0.801000, -0.329300
  0.803000, -0.288600
  0.805000, -0.247800
  0.807000, -0.206800
  0.809000, -0.166000
  0.811000, -0.125300
  0.813000, -0.084500
  0.815000, -0.043800
  0.817000, -0.003200
  0.819000,  0.037100
  0.821000,  0.077000
  0.823000,  0.116400
  0.825000,  0.155500
  0.827000,  0.194300
  0.829000,  0.232200
  0.831000,  0.269300
  0.833000,  0.305900
  0.835000,  0.341800
  0.837000,  0.377100
  0.839000,  0.411600
  0.841000,  0.445000
  0.843000,  0.477800
  0.845000,  0.509800
  0.847000,  0.540500
  0.849000,  0.570100
  0.851000,  0.598900
  0.853000,  0.626500
  0.855000,  0.653000
  0.857000,  0.678600
  0.859000,  0.702800
  0.861000,  0.725700
  0.863000,  0.747600
  0.865000,  0.768200
  0.867000,  0.787400
  0.869000,  0.805100
  0.871000,  0.821400
  0.873000,  0.836300
  0.875000,  0.849900
  0.877000,  0.862000
  0.879000,  0.872700
  0.881000,  0.882000
  0.883000,  0.889800
  0.885000,  0.896200
  0.887000,  0.901000
  0.889000,  0.904400
  0.891000,  0.906500
  0.893000,  0.907000
  0.895000,  0.906200
  0.897000,  0.903900
  0.899000,  0.900200
  0.901000,  0.895000
  0.903000,  0.888500
  0.905000,  0.880700
  0.907000,  0.871600
  0.909000,  0.861200
  0.911000,  0.849500
  0.913000,  0.836600
  0.915000,  0.822400
  0.917000,  0.807100
  0.919000,  0.790700
  0.921000,  0.773100
  0.923000,  0.754800
  0.925000,  0.735600
  0.927000,  0.715500
  0.929000,  0.694600
  0.931000,  0.672700
  0.933000,  0.649900
  0.935000,  0.626600
  0.937000,  0.602700
  0.939000,  0.578100
  0.941000,  0.553100
  0.943000,  0.527300
  0.945000,  0.500800
  0.947000,  0.474000
  0.949000,  0.446800
  0.951000,  0.419700
  0.953000,  0.392200
  0.955000,  0.364700
  0.957000,  0.337000
  0.959000,  0.309200
  0.961000,  0.281200
  0.963000,  0.253300
  0.965000,  0.225500
  0.967000,  0.197800
  0.969000,  0.170400
  0.971000,  0.143100
  0.973000,  0.116100
  0.975000,  0.089600
  0.977000,  0.063600
  0.979000,  0.037900
  0.981000,  0.012700
  0.983000, -0.011800
  0.985000, -0.036100
  0.987000, -0.059900
  0.989000, -0.083100
  0.991000, -0.105400
  0.993000, -0.126900
  0.995000, -0.147800
  0.997000, -0.168100
  0.999000, -0.187600
  1.001000, -0.206300
  1.003000, -0.224300
  1.005000, -0.241300
  1.007000, -0.257500
  1.009000, -0.272700
  1.011000, -0.287200
  1.013000, -0.300900
  1.015000, -0.313700
  1.017000, -0.325900
  1.019000, -0.337200
  1.021000, -0.347400
  1.023000, -0.356700
  1.025000, -0.365300
  1.027000, -0.373000
  1.029000, -0.379900
  1.031000, -0.385900
  1.033000, -0.391100
  1.035000, -0.395500
  1.037000, -0.399000
  1.039000, -0.401900
  1.041000, -0.404100
  1.043000, -0.405500
  1.045000, -0.406200
  1.047000, -0.406200
  1.049000, -0.405500
  1.051000, -0.404100
  1.053000, -0.402100
  1.055000, -0.399500
  1.057000, -0.396200
  1.059000, -0.392400
  1.061000, -0.388000
  1.063000, -0.383200
  1.065000, -0.377800
  1.067000, -0.371900
  1.069000, -0.365600
  1.071000, -0.358900
  1.073000, -0.351800
  1.075000, -0.344300
  1.077000, -0.336500
  1.079000, -0.328200
  1.081000, -0.319700
  1.083000, -0.310800
  1.085000, -0.301700
  1.087000, -0.292500
  1.089000, -0.282900
  1.091000, -0.273000
  1.093000, -0.263000
  1.095000, -0.252800
  1.097000, -0.242500
  1.099000, -0.232100
  1.101000, -0.221700
  1.103000, -0.211200
  1.105000, -0.200500
  1.107000, -0.189700
  1.109000, -0.178900
  1.111000, -0.168200
  1.113000, -0.157500
  1.115000, -0.147000
  1.117000, -0.136600
  1.119000, -0.126100
  1.121000, -0.115800
  1.123000, -0.105600
  1.125000, -0.095500
  1.127000, -0.085500
  1.129000, -0.075700
  1.131000, -0.066000
  1.133000, -0.056500
  1.135000, -0.047200
  1.137000, -0.038000
  1.139000, -0.029000
  1.141000, -0.020200
  1.143000, -0.011600
  1.145000, -0.003300
  1.147000,  0.004800
  1.149000,  0.012700
  1.151000,  0.020200
  1.153000,  0.027500
  1.155000,  0.034500
  1.157000,  0.041200
  1.159000,  0.047800
  1.161000,  0.054000
  1.163000,  0.059700
  1.165000,  0.065300
  1.167000,  0.070600
  1.169000,  0.075600
  1.171000,  0.080200
  1.173000,  0.084500
  1.175000,  0.088600
  1.177000,  0.092400
  1.179000,  0.095900
  1.181000,  0.099100
  1.183000,  0.102000
  1.185000,  0.104500
  1.187000,  0.106700
  1.189000,  0.108800
  1.191000,  0.110500
  1.193000,  0.111900
  1.195000,  0.113200
  1.197000,  0.114100
  1.199000,  0.114700
  1.201000,  0.115100
  1.203000,  0.115200
  1.205000,  0.115000
  1.207000,  0.114600
  1.209000,  0.114100
  1.211000,  0.113300
  1.213000,  0.112300
  1.215000,  0.111000
  1.217000,  0.109600
  1.219000,  0.107800
  1.221000,  0.105900
  1.223000,  0.103900
  1.225000,  0.101600
  1.227000,  0.099000
  1.229000,  0.096400
  1.231000,  0.093700
  1.233000,  0.090700
  1.235000,  0.087700
  1.237000,  0.084600
  1.239000,  0.081300
  1.241000,  0.078000
  1.243000,  0.074600
  1.245000,  0.071000
  1.247000,  0.067300
  1.249000,  0.063700
  1.251000,  0.059900
  1.253000,  0.056100
  1.255000,  0.052200
  1.257000,  0.048300
  1.259000,  0.044400
  1.261000,  0.040300
  1.263000,  0.036400
  1.265000,  0.032500
  1.267000,  0.028500
  1.269000,  0.024500
  1.271000,  0.020600
  1.273000,  0.016700
  1.275000,  0.012800
  1.277000,  0.009000
  1.279000,  0.005200
  1.281000,  0.001300
  1.283000, -0.002600
  1.285000, -0.006300
  1.287000, -0.010000
  1.289000, -0.013600
  1.291000, -0.017100
  1.293000, -0.020500
  1.295000, -0.023900
  1.297000, -0.027200
  1.299000, -0.030300
  1.301000, -0.033500
  1.303000, -0.036600
  1.305000, -0.039600
  1.307000, -0.042500
  1.309000, -0.045200
  1.311000, -0.047700
  1.313000, -0.050300
  1.315000, -0.052800
  1.317000, -0.055200
  1.319000, -0.057500
  1.321000, -0.059700
  1.323000, -0.061800
  1.325000, -0.063700
  1.327000, -0.065500
  1.329000, -0.067200
  1.331000, -0.068700
  1.333000, -0.070100
  1.335000, -0.071300
  1.337000, -0.072300
  1.339000, -0.073100
  1.341000, -0.073800
  1.343000, -0.074200
  1.345000, -0.074500
  1.347000, -0.074700
  1.349000, -0.074700
  1.351000, -0.074400
  1.353000, -0.073900
  1.355000, -0.073300
  1.357000, -0.072400
  1.359000, -0.071300
  1.361000, -0.070200
  1.363000, -0.068900
  1.365000, -0.067300
  1.367000, -0.065400
  1.369000, -0.063300
  1.371000, -0.061100
  1.373000, -0.058900
  1.375000, -0.056500
  1.377000, -0.054100
  1.379000, -0.051300
  1.381000, -0.048200
  1.383000, -0.045100
  1.385000, -0.042100
  1.387000, -0.038900
  1.389000, -0.035700
  1.391000, -0.032500
  1.393000, -0.029400
  1.395000, -0.026500
  1.397000, -0.023700
  1.399000, -0.021200
