# z (nm)   (kJ/mol)
  0.263000,  7.360800
  0.265000,  6.734800
  0.267000,  6.113600
  0.269000,  5.502600
  0.271000,  4.854600
  0.273000,  4.197400
  0.275000,  3.548200
  0.277000,  2.888700
  0.279000,  2.197600
  0.281000,  1.505500
  0.283000,  0.830400
  0.285000,  0.153100
  0.287000, -0.529500
  0.289000, -1.211400
  0.291000, -1.889200
  0.293000, -2.563800
  0.295000, -3.239500
  0.297000, -3.912900
  0.299000, -4.571500
  0.301000, -5.215800
  0.303000, -5.850800
  0.305000, -6.475900
  0.307000, -7.092500
  0.309000, -7.697100
  0.311000, -8.286900
  0.313000, -8.864500
  0.315000, -9.426200
  0.317000, -9.967900
  0.319000,-10.495100
  0.321000,-11.007500
  0.323000,-11.500400
  0.325000,-11.973500
  0.327000,-12.425300
  0.329000,-12.857400
  0.331000,-13.270500
  0.333000,-13.662500
  0.335000,-14.032300
  0.337000,-14.380100
  0.339000,-14.704300
  0.341000,-15.006900
  0.343000,-15.287300
  0.345000,-15.544700
  0.347000,-15.780100
  0.349000,-15.992400
  0.351000,-16.181300
  0.353000,-16.347800
  0.355000,-16.491800
  0.357000,-16.612600
  0.359000,-16.710800
  0.361000,-16.787700
  0.363000,-16.843900
  0.365000,-16.878400
  0.367000,-16.891800
  0.369000,-16.885900
  0.371000,-16.861300
  0.373000,-16.817800
  0.375000,-16.757200
  0.377000,-16.677900
  0.379000,-16.581000
  0.381000,-16.470400
  0.383000,-16.346200
  0.385000,-16.209300
  0.387000,-16.060100
  0.389000,-15.898400
  0.391000,-15.727400
  0.393000,-15.548600
  0.395000,-15.360500
  0.397000,-15.164800
  0.399000,-14.962100
  0.401000,-14.754900
  0.403000,-14.543100
  0.405000,-14.326800
  0.407000,-14.107300
  0.409000,-13.885000
  0.411000,-13.661700
  0.413000,-13.438400
  0.415000,-13.216300
  0.417000,-12.995900
  0.419000,-12.777400
  0.421000,-12.560800
  0.423000,-12.346700
  0.425000,-12.136200
  0.427000,-11.929400
  0.429000,-11.726200
  0.431000,-11.527200
  0.433000,-11.332700
  0.435000,-11.143000
  0.437000,-10.957700
  0.439000,-10.777200
  0.441000,-10.601800
  0.443000,-10.430900
  0.445000,-10.264900
  0.447000,-10.104300
  0.449000, -9.948200
  0.451000, -9.796600
  0.453000, -9.648900
  0.455000, -9.504900
  0.457000, -9.364900
  0.459000, -9.228900
  0.461000, -9.096800
  0.463000, -8.968300
  0.465000, -8.842700
  0.467000, -8.719400
  0.469000, -8.598600
  0.471000, -8.479800
  0.473000, -8.362500
  0.475000, -8.246400
  0.477000, -8.131700
  0.479000, -8.018100
  0.481000, -7.904800
  0.483000, -7.791500
  0.485000, -7.678000
  0.487000, -7.564200
  0.489000, -7.450600
  0.491000, -7.336500
  0.493000, -7.221400
  0.495000, -7.105500
  0.497000, -6.988100
  0.499000, -6.869300
  0.501000, -6.749200
  0.503000, -6.627300
  0.505000, -6.503600
  0.507000, -6.378200
  0.509000, -6.251000
  0.511000, -6.121700
  0.513000, -5.990200
  0.515000, -5.856700
  0.517000, -5.721000
  0.519000, -5.583500
  0.521000, -5.443600
  0.523000, -5.302100
  0.525000, -5.158800
  0.527000, -5.013200
  0.529000, -4.865900
  0.531000, -4.718100
  0.533000, -4.569300
  0.535000, -4.418100
  0.537000, -4.265800
  0.539000, -4.113400
  0.541000, -3.960800
  0.543000, -3.807500
  0.545000, -3.653400
  0.547000, -3.498900
  0.549000, -3.345300
  0.551000, -3.192400
  0.553000, -3.039700
  0.555000, -2.887300
  0.557000, -2.735400
  0.559000, -2.586100
  0.561000, -2.438400
  0.563000, -2.292400
  0.565000, -2.149200
  0.567000, -2.008500
  0.569000, -1.871200
  0.571000, -1.737200
  0.573000, -1.606000
  0.575000, -1.478700
  0.577000, -1.356500
  0.579000, -1.238800
  0.581000, -1.126000
  0.583000, -1.017900
  0.585000, -0.914200
  0.587000, -0.815800
  0.589000, -0.723000
  0.591000, -0.635800
  0.593000, -0.553700
  0.595000, -0.477200
  0.597000, -0.407300
  0.599000, -0.343400
  0.601000, -0.285400
  0.603000, -0.233700
  0.605000, -0.188100
  0.607000, -0.148700
  0.609000, -0.115800
  0.611000, -0.088900
  0.613000, -0.068000
  0.615000, -0.053700
  0.617000, -0.044900
  0.619000, -0.041400
  0.621000, -0.043800
  0.623000, -0.052200
  0.625000, -0.066100
  0.627000, -0.085000
  0.629000, -0.108400
  0.631000, -0.136500
  0.633000, -0.169500
  0.635000, -0.206600
  0.637000, -0.247200
  0.639000, -0.291100
  0.641000, -0.338900
  0.643000, -0.389500
  0.645000, -0.442600
  0.647000, -0.498200
  0.649000, -0.556000
  0.651000, -0.615800
  0.653000, -0.676500
  0.655000, -0.739000
  0.657000, -0.802500
  0.659000, -0.865600
  0.661000, -0.929300
  0.663000, -0.994000
  0.665000, -1.058700
  0.667000, -1.123300
  0.669000, -1.187900
  0.671000, -1.251800
  0.673000, -1.313800
  0.675000, -1.374000
  0.677000, -1.433900
  0.679000, -1.493200
  0.681000, -1.550000
  0.683000, -1.604500
  0.685000, -1.657200
  0.687000, -1.708000
  0.689000, -1.757100
  0.691000, -1.803700
  0.693000, -1.848100
  0.695000, -1.890200
  0.697000, -1.929500
  0.699000, -1.966200
  0.701000, -1.999900
  0.703000, -2.031000
  0.705000, -2.059700
  0.707000, -2.085700
  0.709000, -2.108700
  0.711000, -2.129200
  0.713000, -2.147000
  0.715000, -2.162000
  0.717000, -2.174500
  0.719000, -2.184200
  0.721000, -2.191400
  0.723000, -2.196200
  0.725000, -2.198500
  0.727000, -2.198400
  0.729000, -2.195800
  0.731000, -2.190800
  0.733000, -2.183700
  0.735000, -2.174500
  0.737000, -2.163400
  0.739000, -2.150300
  0.741000, -2.135400
  0.743000, -2.118900
  0.745000, -2.100700
  0.747000, -2.081000
  0.749000, -2.059500
  0.751000, -2.036500
  0.753000, -2.012400
  0.755000, -1.986900
  0.757000, -1.960100
  0.759000, -1.932700
  0.761000, -1.904200
  0.763000, -1.874600
  0.765000, -1.844100
  0.767000, -1.812700
  0.769000, -1.780400
  0.771000, -1.747600
  0.773000, -1.714500
  0.775000, -1.681000
  0.777000, -1.646900
  0.779000, -1.612400
  0.781000, -1.577600
  0.783000, -1.542800
  0.785000, -1.507700
  0.787000, -1.472200
  0.789000, -1.436500
  0.791000, -1.401100
  0.793000, -1.365500
  0.795000, -1.329900
  0.797000, -1.294200
  0.799000, -1.258700
  0.801000, -1.223100
  0.803000, -1.187700
  0.805000, -1.152500
  0.807000, -1.117500
  0.809000, -1.082700
  0.811000, -1.048200
  0.813000, -1.014000
  0.815000, -0.979800
  0.817000, -0.945900
  0.819000, -0.912400
  0.821000, -0.879300
  0.823000, -0.846300
  0.825000, -0.813500
  0.827000, -0.781100
  0.829000, -0.749200
  0.831000, -0.717700
  0.833000, -0.686500
  0.835000, -0.655700
  0.837000, -0.625400
  0.839000, -0.595400
  0.841000, -0.565800
  0.843000, -0.536800
  0.845000, -0.508300
  0.847000, -0.480400
  0.849000, -0.453000
  0.851000, -0.426000
  0.853000, -0.399600
  0.855000, -0.373800
  0.857000, -0.348600
  0.859000, -0.324100
  0.861000, -0.300400
  0.863000, -0.277100
  0.865000, -0.254600
  0.867000, -0.232800
  0.869000, -0.211800
  0.871000, -0.191500
  0.873000, -0.171800
  0.875000, -0.152700
  0.877000, -0.134400
  0.879000, -0.117000
  0.881000, -0.100600
  0.883000, -0.084900
  0.885000, -0.069900
  0.887000, -0.056100
  0.889000, -0.043100
  0.891000, -0.030900
  0.893000, -0.019500
  0.895000, -0.009100
  0.897000,  0.000300
  0.899000,  0.009100
  0.901000,  0.016900
  0.903000,  0.023700
  0.905000,  0.029600
  0.907000,  0.034700
  0.909000,  0.038900
  0.911000,  0.042300
  0.913000,  0.044600
  0.915000,  0.046000
  0.917000,  0.046600
  0.919000,  0.046600
  0.921000,  0.045600
  0.923000,  0.043900
  0.925000,  0.041300
  0.927000,  0.038000
  0.929000,  0.034100
  0.931000,  0.029400
  0.933000,  0.024000
  0.935000,  0.018100
  0.937000,  0.011500
  0.939000,  0.004200
  0.941000, -0.003500
  0.943000, -0.011600
  0.945000, -0.020300
  0.947000, -0.029300
  0.949000, -0.038800
  0.951000, -0.048700
  0.953000, -0.059000
  0.955000, -0.069600
  0.957000, -0.080400
  0.959000, -0.091600
  0.961000, -0.102900
  0.963000, -0.114400
  0.965000, -0.126100
  0.967000, -0.137900
  0.969000, -0.149700
  0.971000, -0.161500
  0.973000, -0.173400
  0.975000, -0.185300
  0.977000, -0.197100
  0.979000, -0.208700
  0.981000, -0.220300
  0.983000, -0.231600
  0.985000, -0.243000
  0.987000, -0.254300
  0.989000, -0.265200
  0.991000, -0.275800
  0.993000, -0.286200
  0.995000, -0.296300
  0.997000, -0.306200
  0.999000, -0.315600
  1.001000, -0.325000
  1.003000, -0.334200
  1.005000, -0.343000
  1.007000, -0.351400
  1.009000, -0.359200
  1.011000, -0.366700
  1.013000, -0.373800
  1.015000, -0.380500
  1.017000, -0.387100
  1.019000, -0.393200
  1.021000, -0.399000
  1.023000, -0.404200
  1.025000, -0.408800
  1.027000, -0.413100
  1.029000, -0.417000
  1.031000, -0.420500
  1.033000, -0.423700
  1.035000, -0.426400
  1.037000, -0.428700
  1.039000, -0.430600
  1.041000, -0.432100
  1.043000, -0.433100
  1.045000, -0.433700
  1.047000, -0.433900
  1.049000, -0.433700
  1.051000, -0.433300
  1.053000, -0.432400
  1.055000, -0.431100
  1.057000, -0.429500
  1.059000, -0.427500
  1.061000, -0.425300
  1.063000, -0.422800
  1.065000, -0.419900
  1.067000, -0.416700
  1.069000, -0.413100
  1.071000, -0.409200
  1.073000, -0.405000
  1.075000, -0.400700
  1.077000, -0.396000
  1.079000, -0.390900
  1.081000, -0.385500
  1.083000, -0.380000
  1.085000, -0.374300
  1.087000, -0.368400
  1.089000, -0.362500
  1.091000, -0.356300
  1.093000, -0.350000
  1.095000, -0.343600
  1.097000, -0.337000
  1.099000, -0.330200
  1.101000, -0.323200
  1.103000, -0.316200
  1.105000, -0.309000
  1.107000, -0.301800
  1.109000, -0.294500
  1.111000, -0.287100
  1.113000, -0.279800
  1.115000, -0.272300
  1.117000, -0.264800
  1.119000, -0.257100
  1.121000, -0.249400
  1.123000, -0.241900
  1.125000, -0.234100
  1.127000, -0.226400
  1.129000, -0.218800
  1.131000, -0.211300
  1.133000, -0.203500
  1.135000, -0.195900
  1.137000, -0.188400
  1.139000, -0.180900
  1.141000, -0.173600
  1.143000, -0.166200
  1.145000, -0.159000
  1.147000, -0.151900
  1.149000, -0.144700
  1.151000, -0.137600
  1.153000, -0.130600
  1.155000, -0.123600
  1.157000, -0.116700
  1.159000, -0.109900
  1.161000, -0.103300
  1.163000, -0.096700
  1.165000, -0.090400
  1.167000, -0.084100
  1.169000, -0.077900
  1.171000, -0.071800
  1.173000, -0.065900
  1.175000, -0.060100
  1.177000, -0.054500
  1.179000, -0.049200
  1.181000, -0.044000
  1.183000, -0.038800
  1.185000, -0.033800
  1.187000, -0.029000
  1.189000, -0.024300
  1.191000, -0.019700
  1.193000, -0.015300
  1.195000, -0.011100
  1.197000, -0.007100
  1.199000, -0.003300
  1.201000,  0.000400
  1.203000,  0.003800
  1.205000,  0.007100
  1.207000,  0.010200
  1.209000,  0.013000
  1.211000,  0.015700
  1.213000,  0.018100
  1.215000,  0.020200
  1.217000,  0.022000
  1.219000,  0.023700
  1.221000,  0.025200
  1.223000,  0.026500
  1.225000,  0.027700
  1.227000,  0.028700
  1.229000,  0.029400
  1.231000,  0.029900
  1.233000,  0.030300
  1.235000,  0.030400
  1.237000,  0.030300
  1.239000,  0.030000
  1.241000,  0.029500
  1.243000,  0.028800
  1.245000,  0.027900
  1.247000,  0.026900
  1.249000,  0.025700
  1.251000,  0.024400
  1.253000,  0.022900
  1.255000,  0.021200
  1.257000,  0.019300
  1.259000,  0.017300
  1.261000,  0.015300
  1.263000,  0.013200
  1.265000,  0.011100
  1.267000,  0.008800
  1.269000,  0.006500
  1.271000,  0.004200
  1.273000,  0.001700
  1.275000, -0.000900
  1.277000, -0.003400
  1.279000, -0.006000
  1.281000, -0.008600
  1.283000, -0.011300
  1.285000, -0.013800
  1.287000, -0.016500
  1.289000, -0.019100
  1.291000, -0.021700
  1.293000, -0.024100
  1.295000, -0.026300
  1.297000, -0.028600
  1.299000, -0.030900
  1.301000, -0.033000
  1.303000, -0.034900
  1.305000, -0.036800
  1.307000, -0.038700
  1.309000, -0.040300
  1.311000, -0.041800
  1.313000, -0.043000
  1.315000, -0.044000
  1.317000, -0.045000
  1.319000, -0.045800
  1.321000, -0.046400
  1.323000, -0.046600
  1.325000, -0.046800
  1.327000, -0.046800
  1.329000, -0.046400
  1.331000, -0.045800
  1.333000, -0.045000
  1.335000, -0.044100
  1.337000, -0.043000
  1.339000, -0.041500
  1.341000, -0.039700
  1.343000, -0.037800
  1.345000, -0.035600
  1.347000, -0.033200
  1.349000, -0.030600
  1.351000, -0.027600
  1.353000, -0.024500
  1.355000, -0.021200
  1.357000, -0.017600
  1.359000, -0.013900
  1.361000, -0.009900
  1.363000, -0.005800
  1.365000, -0.001500
  1.367000,  0.002800
  1.369000,  0.007300
  1.371000,  0.012000
  1.373000,  0.016700
  1.375000,  0.021500
  1.377000,  0.026200
  1.379000,  0.030900
  1.381000,  0.035700
  1.383000,  0.040400
  1.385000,  0.045100
  1.387000,  0.050000
  1.389000,  0.054700
  1.391000,  0.059200
  1.393000,  0.063300
  1.395000,  0.067000
  1.397000,  0.070300
  1.399000,  0.073200
