# z (nm)   (kJ/mol)
  0.255000,  3.590400
  0.259000,  1.886100
  0.261000,  1.050800
  0.263000,  0.181800
  0.265000, -0.668100
  0.267000, -1.528800
  0.269000, -2.392100
  0.271000, -3.252800
  0.273000, -4.110500
  0.275000, -4.962300
  0.277000, -5.816700
  0.279000, -6.659400
  0.281000, -7.497400
  0.283000, -8.339700
  0.285000, -9.172100
  0.287000, -9.984500
  0.289000,-10.790400
  0.291000,-11.590100
  0.293000,-12.372900
  0.295000,-13.140600
  0.297000,-13.885800
  0.299000,-14.603900
  0.301000,-15.298100
  0.303000,-15.972600
  0.305000,-16.627000
  0.307000,-17.251900
  0.309000,-17.846100
  0.311000,-18.415500
  0.313000,-18.960700
  0.315000,-19.476200
  0.317000,-19.960700
  0.319000,-20.416000
  0.321000,-20.837400
  0.323000,-21.224100
  0.325000,-21.580000
  0.327000,-21.902500
  0.329000,-22.192500
  0.331000,-22.449000
  0.333000,-22.670500
  0.335000,-22.858800
  0.337000,-23.013700
  0.339000,-23.135600
  0.341000,-23.224500
  0.343000,-23.281100
  0.345000,-23.305500
  0.347000,-23.298500
  0.349000,-23.261700
  0.351000,-23.195400
  0.353000,-23.100200
  0.355000,-22.977500
  0.357000,-22.828200
  0.359000,-22.654500
  0.361000,-22.457400
  0.363000,-22.239600
  0.365000,-22.002100
  0.367000,-21.742400
  0.369000,-21.465400
  0.371000,-21.174200
  0.373000,-20.867400
  0.375000,-20.547400
  0.377000,-20.218300
  0.379000,-19.882900
  0.381000,-19.541100
  0.383000,-19.195300
  0.385000,-18.846800
  0.387000,-18.495300
  0.389000,-18.143700
  0.391000,-17.792500
  0.393000,-17.445100
  0.395000,-17.102500
  0.397000,-16.764400
  0.399000,-16.433700
  0.401000,-16.111100
  0.403000,-15.796100
  0.405000,-15.490500
  0.407000,-15.195300
  0.409000,-14.911100
  0.411000,-14.638200
  0.413000,-14.377100
  0.415000,-14.128000
  0.417000,-13.890700
  0.419000,-13.665400
  0.421000,-13.452700
  0.423000,-13.252100
  0.425000,-13.062700
  0.427000,-12.884500
  0.429000,-12.718400
  0.431000,-12.563800
  0.433000,-12.419200
  0.435000,-12.284200
  0.437000,-12.159000
  0.439000,-12.043400
  0.441000,-11.936200
  0.443000,-11.836700
  0.445000,-11.743900
  0.447000,-11.657400
  0.449000,-11.577000
  0.451000,-11.500600
  0.453000,-11.428300
  0.455000,-11.360000
  0.457000,-11.294500
  0.459000,-11.231200
  0.461000,-11.170000
  0.463000,-11.110500
  0.465000,-11.051000
  0.467000,-10.991300
  0.469000,-10.931900
  0.471000,-10.872100
  0.473000,-10.810700
  0.475000,-10.747600
  0.477000,-10.682000
  0.479000,-10.614400
  0.481000,-10.544500
  0.483000,-10.471200
  0.485000,-10.394900
  0.487000,-10.315400
  0.489000,-10.232400
  0.491000,-10.145800
  0.493000,-10.055300
  0.495000, -9.961100
  0.497000, -9.863000
  0.499000, -9.760900
  0.501000, -9.655100
  0.503000, -9.545600
  0.505000, -9.432500
  0.507000, -9.315700
  0.509000, -9.195300
  0.511000, -9.071300
  0.513000, -8.944000
  0.515000, -8.813500
  0.517000, -8.679900
  0.519000, -8.543200
  0.521000, -8.404200
  0.523000, -8.263100
  0.525000, -8.119400
  0.527000, -7.972900
  0.529000, -7.823600
  0.531000, -7.672200
  0.533000, -7.519500
  0.535000, -7.365500
  0.537000, -7.209900
  0.539000, -7.052800
  0.541000, -6.894500
  0.543000, -6.735300
  0.545000, -6.575100
  0.547000, -6.413900
  0.549000, -6.252100
  0.551000, -6.089800
  0.553000, -5.926800
  0.555000, -5.763400
  0.557000, -5.600500
  0.559000, -5.437800
  0.561000, -5.274900
  0.563000, -5.111800
  0.565000, -4.949200
  0.567000, -4.787000
  0.569000, -4.625300
  0.571000, -4.464700
  0.573000, -4.304700
  0.575000, -4.145200
  0.577000, -3.986900
  0.579000, -3.830100
  0.581000, -3.674600
  0.583000, -3.520700
  0.585000, -3.368600
  0.587000, -3.217600
  0.589000, -3.068200
  0.591000, -2.921700
  0.593000, -2.777200
  0.595000, -2.634400
  0.597000, -2.493500
  0.599000, -2.355400
  0.601000, -2.219900
  0.603000, -2.087400
  0.605000, -1.957900
  0.607000, -1.831300
  0.609000, -1.707900
  0.611000, -1.587400
  0.613000, -1.470100
  0.615000, -1.355600
  0.617000, -1.244300
  0.619000, -1.136800
  0.621000, -1.033100
  0.623000, -0.933400
  0.625000, -0.838400
  0.627000, -0.746500
  0.629000, -0.657900
  0.631000, -0.574900
  0.633000, -0.496200
  0.635000, -0.421000
  0.637000, -0.349700
  0.639000, -0.282200
  0.641000, -0.219100
  0.643000, -0.159800
  0.645000, -0.104600
  0.647000, -0.053700
  0.649000, -0.006700
  0.651000,  0.036300
  0.653000,  0.075700
  0.655000,  0.111500
  0.657000,  0.143500
  0.659000,  0.171700
  0.661000,  0.196200
  0.663000,  0.217600
  0.665000,  0.235300
  0.667000,  0.249700
  0.669000,  0.261300
  0.671000,  0.269800
  0.673000,  0.275100
  0.675000,  0.277700
  0.677000,  0.277400
  0.679000,  0.274600
  0.681000,  0.269200
  0.683000,  0.261100
  0.685000,  0.250900
  0.687000,  0.238500
  0.689000,  0.223800
  0.691000,  0.206900
  0.693000,  0.188000
  0.695000,  0.167100
  0.697000,  0.144200
  0.699000,  0.120600
  0.701000,  0.095500
  0.703000,  0.068000
  0.705000,  0.039400
  0.707000,  0.009800
  0.709000, -0.021500
  0.711000, -0.053700
  0.713000, -0.087000
  0.715000, -0.121600
  0.717000, -0.156700
  0.719000, -0.192200
  0.721000, -0.228400
  0.723000, -0.265200
  0.725000, -0.302000
  0.727000, -0.340100
  0.729000, -0.379100
  0.731000, -0.417800
  0.733000, -0.456500
  0.735000, -0.496200
  0.737000, -0.536400
  0.739000, -0.576100
  0.741000, -0.615400
  0.743000, -0.654300
  0.745000, -0.692800
  0.747000, -0.731000
  0.749000, -0.769100
  0.751000, -0.807000
  0.753000, -0.844200
  0.755000, -0.880600
  0.757000, -0.916200
  0.759000, -0.950800
  0.761000, -0.984600
  0.763000, -1.017700
  0.765000, -1.049700
  0.767000, -1.080800
  0.769000, -1.110700
  0.771000, -1.139300
  0.773000, -1.166700
  0.775000, -1.192800
  0.777000, -1.217600
  0.779000, -1.240600
  0.781000, -1.262100
  0.783000, -1.282300
  0.785000, -1.301000
  0.787000, -1.318200
  0.789000, -1.333500
  0.791000, -1.347100
  0.793000, -1.358900
  0.795000, -1.369100
  0.797000, -1.377700
  0.799000, -1.384500
  0.801000, -1.389800
  0.803000, -1.393300
  0.805000, -1.395100
  0.807000, -1.395100
  0.809000, -1.393300
  0.811000, -1.389900
  0.813000, -1.384800
  0.815000, -1.378000
  0.817000, -1.369800
  0.819000, -1.359900
  0.821000, -1.348600
  0.823000, -1.335700
  0.825000, -1.321300
  0.827000, -1.305400
  0.829000, -1.288100
  0.831000, -1.269400
  0.833000, -1.249400
  0.835000, -1.228200
  0.837000, -1.205900
  0.839000, -1.182600
  0.841000, -1.158400
  0.843000, -1.133000
  0.845000, -1.106400
  0.847000, -1.079000
  0.849000, -1.050600
  0.851000, -1.021300
  0.853000, -0.991300
  0.855000, -0.960700
  0.857000, -0.929500
  0.859000, -0.897600
  0.861000, -0.865000
  0.863000, -0.832000
  0.865000, -0.798800
  0.867000, -0.765200
  0.869000, -0.731600
  0.871000, -0.698000
  0.873000, -0.663800
  0.875000, -0.629300
  0.877000, -0.595100
  0.879000, -0.561200
  0.881000, -0.527300
  0.883000, -0.493400
  0.885000, -0.459500
  0.887000, -0.425600
  0.889000, -0.391900
  0.891000, -0.358800
  0.893000, -0.325900
  0.895000, -0.293300
  0.897000, -0.261200
  0.899000, -0.229500
  0.901000, -0.198400
  0.903000, -0.167900
  0.905000, -0.137700
  0.907000, -0.108300
  0.909000, -0.079900
  0.911000, -0.051900
  0.913000, -0.024700
  0.915000,  0.001600
  0.917000,  0.027000
  0.919000,  0.051700
  0.921000,  0.075700
  0.923000,  0.098900
  0.925000,  0.120900
  0.927000,  0.142100
  0.929000,  0.162400
  0.931000,  0.181900
  0.933000,  0.200500
  0.935000,  0.217800
  0.937000,  0.234100
  0.939000,  0.249600
  0.941000,  0.263900
  0.943000,  0.277300
  0.945000,  0.289700
  0.947000,  0.301000
  0.949000,  0.311100
  0.951000,  0.320100
  0.953000,  0.327900
  0.955000,  0.334800
  0.957000,  0.340800
  0.959000,  0.345900
  0.961000,  0.349800
  0.963000,  0.352600
  0.965000,  0.354400
  0.967000,  0.355200
  0.969000,  0.355100
  0.971000,  0.353900
  0.973000,  0.351800
  0.975000,  0.348900
  0.977000,  0.344900
  0.979000,  0.340000
  0.981000,  0.334400
  0.983000,  0.327800
  0.985000,  0.320500
  0.987000,  0.312300
  0.989000,  0.303300
  0.991000,  0.293500
  0.993000,  0.283000
  0.995000,  0.272000
  0.997000,  0.260400
  0.999000,  0.248000
  1.001000,  0.235000
  1.003000,  0.221400
  1.005000,  0.207400
  1.007000,  0.193300
  1.009000,  0.178600
  1.011000,  0.163500
  1.013000,  0.148200
  1.015000,  0.132600
  1.017000,  0.116900
  1.019000,  0.100900
  1.021000,  0.084600
  1.023000,  0.068200
  1.025000,  0.051700
  1.027000,  0.035000
  1.029000,  0.018500
  1.031000,  0.001900
  1.033000, -0.014800
  1.035000, -0.031400
  1.037000, -0.047900
  1.039000, -0.064300
  1.041000, -0.080500
  1.043000, -0.096400
  1.045000, -0.112000
  1.047000, -0.127300
  1.049000, -0.142300
  1.051000, -0.157000
  1.053000, -0.171500
  1.055000, -0.185700
  1.057000, -0.199500
  1.059000, -0.212700
  1.061000, -0.225600
  1.063000, -0.238100
  1.065000, -0.250200
  1.067000, -0.261900
  1.069000, -0.273200
  1.071000, -0.283800
  1.073000, -0.294000
  1.075000, -0.303700
  1.077000, -0.312900
  1.079000, -0.321700
  1.081000, -0.329900
  1.083000, -0.337700
  1.085000, -0.344900
  1.087000, -0.351600
  1.089000, -0.357900
  1.091000, -0.363700
  1.093000, -0.368900
  1.095000, -0.373700
  1.097000, -0.377900
  1.099000, -0.381700
  1.101000, -0.384900
  1.103000, -0.387600
  1.105000, -0.389900
  1.107000, -0.391800
  1.109000, -0.393300
  1.111000, -0.394300
  1.113000, -0.394800
  1.115000, -0.395100
  1.117000, -0.394800
  1.119000, -0.394200
  1.121000, -0.393200
  1.123000, -0.391800
  1.125000, -0.390100
  1.127000, -0.387900
  1.129000, -0.385200
  1.131000, -0.382400
  1.133000, -0.379200
  1.135000, -0.375700
  1.137000, -0.372000
  1.139000, -0.368000
  1.141000, -0.363700
  1.143000, -0.359200
  1.145000, -0.354200
  1.147000, -0.349100
  1.149000, -0.343700
  1.151000, -0.338200
  1.153000, -0.332300
  1.155000, -0.326300
  1.157000, -0.320000
  1.159000, -0.313500
  1.161000, -0.307100
  1.163000, -0.300400
  1.165000, -0.293500
  1.167000, -0.286400
  1.169000, -0.279100
  1.171000, -0.271800
  1.173000, -0.264500
  1.175000, -0.257000
  1.177000, -0.249500
  1.179000, -0.241900
  1.181000, -0.234300
  1.183000, -0.226700
  1.185000, -0.218900
  1.187000, -0.211100
  1.189000, -0.203400
  1.191000, -0.195700
  1.193000, -0.187900
  1.195000, -0.180100
  1.197000, -0.172300
  1.199000, -0.164500
  1.201000, -0.156700
  1.203000, -0.148900
  1.205000, -0.141000
  1.207000, -0.133300
  1.209000, -0.125800
  1.211000, -0.118500
  1.213000, -0.111100
  1.215000, -0.103700
  1.217000, -0.096600
  1.219000, -0.089500
  1.221000, -0.082600
  1.223000, -0.075700
  1.225000, -0.069000
  1.227000, -0.062400
  1.229000, -0.056000
  1.231000, -0.049800
  1.233000, -0.043600
  1.235000, -0.037600
  1.237000, -0.031800
  1.239000, -0.026300
  1.241000, -0.020800
  1.243000, -0.015600
  1.245000, -0.010700
  1.247000, -0.005900
  1.249000, -0.001500
  1.251000,  0.002800
  1.253000,  0.006800
  1.255000,  0.010800
  1.257000,  0.014600
  1.259000,  0.018000
  1.261000,  0.021200
  1.263000,  0.024300
  1.265000,  0.027200
  1.267000,  0.029800
  1.269000,  0.032300
  1.271000,  0.034500
  1.273000,  0.036400
  1.275000,  0.038000
  1.277000,  0.039600
  1.279000,  0.040900
  1.281000,  0.041900
  1.283000,  0.042700
  1.285000,  0.043400
  1.287000,  0.043800
  1.289000,  0.044100
  1.291000,  0.044300
  1.293000,  0.044200
  1.295000,  0.043900
  1.297000,  0.043600
  1.299000,  0.043100
  1.301000,  0.042300
  1.303000,  0.041300
  1.305000,  0.040300
  1.307000,  0.039500
  1.309000,  0.038500
  1.311000,  0.037100
  1.313000,  0.035600
  1.315000,  0.034200
  1.317000,  0.032800
  1.319000,  0.031300
  1.321000,  0.029800
  1.323000,  0.028500
  1.325000,  0.027100
  1.327000,  0.025700
  1.329000,  0.024200
  1.331000,  0.022900
  1.333000,  0.021700
  1.335000,  0.020500
  1.337000,  0.019300
  1.339000,  0.018100
  1.341000,  0.017000
  1.343000,  0.016000
  1.345000,  0.015300
  1.347000,  0.014700
  1.349000,  0.014200
  1.351000,  0.013600
  1.353000,  0.013100
  1.355000,  0.012800
  1.357000,  0.012600
  1.359000,  0.012500
  1.361000,  0.012500
  1.363000,  0.012600
  1.365000,  0.012900
  1.367000,  0.013200
  1.369000,  0.013500
  1.371000,  0.014100
  1.373000,  0.014700
  1.375000,  0.015400
  1.377000,  0.016200
  1.379000,  0.016900
  1.381000,  0.017600
  1.383000,  0.018200
  1.385000,  0.018900
  1.387000,  0.019600
  1.389000,  0.020200
  1.391000,  0.020700
  1.393000,  0.021100
  1.395000,  0.021100
  1.397000,  0.020700
  1.399000,  0.020100
