# z (nm)   (kJ/mol)
  0.279000, 10.449700
  0.281000,  9.895000
  0.283000,  9.382900
  0.285000,  8.842700
  0.287000,  8.258700
  0.289000,  7.669000
  0.291000,  7.063500
  0.293000,  6.444400
  0.295000,  5.828600
  0.297000,  5.212500
  0.299000,  4.595200
  0.301000,  3.989000
  0.303000,  3.383400
  0.305000,  2.767400
  0.307000,  2.149900
  0.309000,  1.537800
  0.311000,  0.930700
  0.313000,  0.330400
  0.315000, -0.258200
  0.317000, -0.838700
  0.319000, -1.415600
  0.321000, -1.982600
  0.323000, -2.541200
  0.325000, -3.085900
  0.327000, -3.615900
  0.329000, -4.136900
  0.331000, -4.645600
  0.333000, -5.137400
  0.335000, -5.611900
  0.337000, -6.069900
  0.339000, -6.514600
  0.341000, -6.944300
  0.343000, -7.356800
  0.345000, -7.753700
  0.347000, -8.132100
  0.349000, -8.495100
  0.351000, -8.840900
  0.353000, -9.165500
  0.355000, -9.473100
  0.357000, -9.763000
  0.359000,-10.033400
  0.361000,-10.286000
  0.363000,-10.520500
  0.365000,-10.735600
  0.367000,-10.931500
  0.369000,-11.108600
  0.371000,-11.267200
  0.373000,-11.407200
  0.375000,-11.528500
  0.377000,-11.631300
  0.379000,-11.715400
  0.381000,-11.782600
  0.383000,-11.833200
  0.385000,-11.867800
  0.387000,-11.885400
  0.389000,-11.886000
  0.391000,-11.870900
  0.393000,-11.841000
  0.395000,-11.797700
  0.397000,-11.740300
  0.399000,-11.668700
  0.401000,-11.584000
  0.403000,-11.488600
  0.405000,-11.383000
  0.407000,-11.267100
  0.409000,-11.142200
  0.411000,-11.008000
  0.413000,-10.865300
  0.415000,-10.714300
  0.417000,-10.557200
  0.419000,-10.394700
  0.421000,-10.226500
  0.423000,-10.052900
  0.425000, -9.875500
  0.427000, -9.695200
  0.429000, -9.511900
  0.431000, -9.326100
  0.433000, -9.137600
  0.435000, -8.946900
  0.437000, -8.754800
  0.439000, -8.561500
  0.441000, -8.367500
  0.443000, -8.172900
  0.445000, -7.977800
  0.447000, -7.782400
  0.449000, -7.587200
  0.451000, -7.391700
  0.453000, -7.196400
  0.455000, -7.001600
  0.457000, -6.807300
  0.459000, -6.613200
  0.461000, -6.419800
  0.463000, -6.226400
  0.465000, -6.033300
  0.467000, -5.840600
  0.469000, -5.648200
  0.471000, -5.455800
  0.473000, -5.263700
  0.475000, -5.072100
  0.477000, -4.880600
  0.479000, -4.689100
  0.481000, -4.497700
  0.483000, -4.306300
  0.485000, -4.114900
  0.487000, -3.923100
  0.489000, -3.731100
  0.491000, -3.539200
  0.493000, -3.347300
  0.495000, -3.155400
  0.497000, -2.963500
  0.499000, -2.771500
  0.501000, -2.579400
  0.503000, -2.387300
  0.505000, -2.195300
  0.507000, -2.004000
  0.509000, -1.812700
  0.511000, -1.621800
  0.513000, -1.431800
  0.515000, -1.241900
  0.517000, -1.053100
  0.519000, -0.866000
  0.521000, -0.680200
  0.523000, -0.495900
  0.525000, -0.313100
  0.527000, -0.131300
  0.529000,  0.048700
  0.531000,  0.226300
  0.533000,  0.401800
  0.535000,  0.574600
  0.537000,  0.744300
  0.539000,  0.911200
  0.541000,  1.074800
  0.543000,  1.234500
  0.545000,  1.390600
  0.547000,  1.542800
  0.549000,  1.691000
  0.551000,  1.835900
  0.553000,  1.977200
  0.555000,  2.112600
  0.557000,  2.242500
  0.559000,  2.368100
  0.561000,  2.488900
  0.563000,  2.605200
  0.565000,  2.715400
  0.567000,  2.818200
  0.569000,  2.915000
  0.571000,  3.006700
  0.573000,  3.092300
  0.575000,  3.171000
  0.577000,  3.243100
  0.579000,  3.308700
  0.581000,  3.367800
  0.583000,  3.420200
  0.585000,  3.465800
  0.587000,  3.504700
  0.589000,  3.536400
  0.591000,  3.561300
  0.593000,  3.579300
  0.595000,  3.590500
  0.597000,  3.594900
  0.599000,  3.592700
  0.601000,  3.583900
  0.603000,  3.568600
  0.605000,  3.546400
  0.607000,  3.517400
  0.609000,  3.482100
  0.611000,  3.440500
  0.613000,  3.393000
  0.615000,  3.340000
  0.617000,  3.281800
  0.619000,  3.218900
  0.621000,  3.151300
  0.623000,  3.077800
  0.625000,  2.999400
  0.627000,  2.917300
  0.629000,  2.830700
  0.631000,  2.739900
  0.633000,  2.646800
  0.635000,  2.551500
  0.637000,  2.452300
  0.639000,  2.349600
  0.641000,  2.244200
  0.643000,  2.136500
  0.645000,  2.027500
  0.647000,  1.916800
  0.649000,  1.805400
  0.651000,  1.692900
  0.653000,  1.578300
  0.655000,  1.463600
  0.657000,  1.349300
  0.659000,  1.234200
  0.661000,  1.118900
  0.663000,  1.004900
  0.665000,  0.891600
  0.667000,  0.779200
  0.669000,  0.669800
  0.671000,  0.561700
  0.673000,  0.454600
  0.675000,  0.349300
  0.677000,  0.246100
  0.679000,  0.145400
  0.681000,  0.047300
  0.683000, -0.047500
  0.685000, -0.139900
  0.687000, -0.229600
  0.689000, -0.316100
  0.691000, -0.399700
  0.693000, -0.479900
  0.695000, -0.556900
  0.697000, -0.630800
  0.699000, -0.701100
  0.701000, -0.768000
  0.703000, -0.831500
  0.705000, -0.891200
  0.707000, -0.947700
  0.709000, -1.000400
  0.711000, -1.049300
  0.713000, -1.094800
  0.715000, -1.136500
  0.717000, -1.174400
  0.719000, -1.208700
  0.721000, -1.239600
  0.723000, -1.267000
  0.725000, -1.291100
  0.727000, -1.312100
  0.729000, -1.329700
  0.731000, -1.344000
  0.733000, -1.354800
  0.735000, -1.362800
  0.737000, -1.368200
  0.739000, -1.370500
  0.741000, -1.369600
  0.743000, -1.366200
  0.745000, -1.360300
  0.747000, -1.351500
  0.749000, -1.340100
  0.751000, -1.326300
  0.753000, -1.310200
  0.755000, -1.292200
  0.757000, -1.272500
  0.759000, -1.251000
  0.761000, -1.227300
  0.763000, -1.201500
  0.765000, -1.174000
  0.767000, -1.145000
  0.769000, -1.114500
  0.771000, -1.082500
  0.773000, -1.049200
  0.775000, -1.014400
  0.777000, -0.978600
  0.779000, -0.941800
  0.781000, -0.903900
  0.783000, -0.865400
  0.785000, -0.825900
  0.787000, -0.785300
  0.789000, -0.744200
  0.791000, -0.702500
  0.793000, -0.660100
  0.795000, -0.617000
  0.797000, -0.573500
  0.799000, -0.529900
  0.801000, -0.485900
  0.803000, -0.441500
  0.805000, -0.396900
  0.807000, -0.352300
  0.809000, -0.307900
  0.811000, -0.263300
  0.813000, -0.219100
  0.815000, -0.174800
  0.817000, -0.130300
  0.819000, -0.085900
  0.821000, -0.042000
  0.823000,  0.001300
  0.825000,  0.044100
  0.827000,  0.086500
  0.829000,  0.128300
  0.831000,  0.169500
  0.833000,  0.210000
  0.835000,  0.249900
  0.837000,  0.289100
  0.839000,  0.327300
  0.841000,  0.364700
  0.843000,  0.401200
  0.845000,  0.436700
  0.847000,  0.471000
  0.849000,  0.504100
  0.851000,  0.536300
  0.853000,  0.567300
  0.855000,  0.596900
  0.857000,  0.625400
  0.859000,  0.652900
  0.861000,  0.678900
  0.863000,  0.703400
  0.865000,  0.726400
  0.867000,  0.747900
  0.869000,  0.768000
  0.871000,  0.786500
  0.873000,  0.803500
  0.875000,  0.819000
  0.877000,  0.833000
  0.879000,  0.845400
  0.881000,  0.856300
  0.883000,  0.865500
  0.885000,  0.873000
  0.887000,  0.879000
  0.889000,  0.883400
  0.891000,  0.886200
  0.893000,  0.887500
  0.895000,  0.887200
  0.897000,  0.885300
  0.899000,  0.881900
  0.901000,  0.877100
  0.903000,  0.870800
  0.905000,  0.863000
  0.907000,  0.853700
  0.909000,  0.842900
  0.911000,  0.830900
  0.913000,  0.817500
  0.915000,  0.802900
  0.917000,  0.786900
  0.919000,  0.769800
  0.921000,  0.751600
  0.923000,  0.732200
  0.925000,  0.711800
  0.927000,  0.690600
  0.929000,  0.668500
  0.931000,  0.645300
  0.933000,  0.621300
  0.935000,  0.596500
  0.937000,  0.571000
  0.939000,  0.545100
  0.941000,  0.518600
  0.943000,  0.491500
  0.945000,  0.463700
  0.947000,  0.435600
  0.949000,  0.407100
  0.951000,  0.378300
  0.953000,  0.349300
  0.955000,  0.320600
  0.957000,  0.291800
  0.959000,  0.262700
  0.961000,  0.233800
  0.963000,  0.205000
  0.965000,  0.176000
  0.967000,  0.147200
  0.969000,  0.119200
  0.971000,  0.091600
  0.973000,  0.063900
  0.975000,  0.036500
  0.977000,  0.009600
  0.979000, -0.017000
  0.981000, -0.042900
  0.983000, -0.068300
  0.985000, -0.093000
  0.987000, -0.116700
  0.989000, -0.139800
  0.991000, -0.162300
  0.993000, -0.184300
  0.995000, -0.205500
  0.997000, -0.225800
  0.999000, -0.245200
  1.001000, -0.263800
  1.003000, -0.281700
  1.005000, -0.298600
  1.007000, -0.314500
  1.009000, -0.329600
  1.011000, -0.343800
  1.013000, -0.357000
  1.015000, -0.369300
  1.017000, -0.380600
  1.019000, -0.391000
  1.021000, -0.400400
  1.023000, -0.409200
  1.025000, -0.416900
  1.027000, -0.423600
  1.029000, -0.429600
  1.031000, -0.434500
  1.033000, -0.438500
  1.035000, -0.441800
  1.037000, -0.444200
  1.039000, -0.445800
  1.041000, -0.446400
  1.043000, -0.446200
  1.045000, -0.445500
  1.047000, -0.444000
  1.049000, -0.441500
  1.051000, -0.438500
  1.053000, -0.434900
  1.055000, -0.430600
  1.057000, -0.425600
  1.059000, -0.420000
  1.061000, -0.413900
  1.063000, -0.407400
  1.065000, -0.400200
  1.067000, -0.392600
  1.069000, -0.384600
  1.071000, -0.376100
  1.073000, -0.367400
  1.075000, -0.358400
  1.077000, -0.348700
  1.079000, -0.338700
  1.081000, -0.328500
  1.083000, -0.318200
  1.085000, -0.307700
  1.087000, -0.296900
  1.089000, -0.285900
  1.091000, -0.274700
  1.093000, -0.263400
  1.095000, -0.252000
  1.097000, -0.240500
  1.099000, -0.229100
  1.101000, -0.217600
  1.103000, -0.205900
  1.105000, -0.194300
  1.107000, -0.182700
  1.109000, -0.171000
  1.111000, -0.159300
  1.113000, -0.147600
  1.115000, -0.136100
  1.117000, -0.124800
  1.119000, -0.113500
  1.121000, -0.102300
  1.123000, -0.091200
  1.125000, -0.080300
  1.127000, -0.069400
  1.129000, -0.058700
  1.131000, -0.048200
  1.133000, -0.037700
  1.135000, -0.027500
  1.137000, -0.017500
  1.139000, -0.007600
  1.141000,  0.002000
  1.143000,  0.011400
  1.145000,  0.020500
  1.147000,  0.029300
  1.149000,  0.038000
  1.151000,  0.046500
  1.153000,  0.054600
  1.155000,  0.062400
  1.157000,  0.070000
  1.159000,  0.077200
  1.161000,  0.084200
  1.163000,  0.090900
  1.165000,  0.097300
  1.167000,  0.103400
  1.169000,  0.109100
  1.171000,  0.114500
  1.173000,  0.119400
  1.175000,  0.124000
  1.177000,  0.128300
  1.179000,  0.132300
  1.181000,  0.135900
  1.183000,  0.139100
  1.185000,  0.142000
  1.187000,  0.144600
  1.189000,  0.146800
  1.191000,  0.148700
  1.193000,  0.150100
  1.195000,  0.151200
  1.197000,  0.152000
  1.199000,  0.152400
  1.201000,  0.152400
  1.203000,  0.152100
  1.205000,  0.151400
  1.207000,  0.150400
  1.209000,  0.149200
  1.211000,  0.147600
  1.213000,  0.145700
  1.215000,  0.143500
  1.217000,  0.141000
  1.219000,  0.138300
  1.221000,  0.135300
  1.223000,  0.132100
  1.225000,  0.128700
  1.227000,  0.125200
  1.229000,  0.121500
  1.231000,  0.117700
  1.233000,  0.113700
  1.235000,  0.109600
  1.237000,  0.105400
  1.239000,  0.101200
  1.241000,  0.096700
  1.243000,  0.092200
  1.245000,  0.087800
  1.247000,  0.083300
  1.249000,  0.078800
  1.251000,  0.074400
  1.253000,  0.070000
  1.255000,  0.065400
  1.257000,  0.060900
  1.259000,  0.056300
  1.261000,  0.051800
  1.263000,  0.047500
  1.265000,  0.043200
  1.267000,  0.039000
  1.269000,  0.034900
  1.271000,  0.030700
  1.273000,  0.026700
  1.275000,  0.022700
  1.277000,  0.018700
  1.279000,  0.014600
  1.281000,  0.010600
  1.283000,  0.006700
  1.285000,  0.002900
  1.287000, -0.000800
  1.289000, -0.004600
  1.291000, -0.008200
  1.293000, -0.011900
  1.295000, -0.015700
  1.297000, -0.019400
  1.299000, -0.022900
  1.301000, -0.026400
  1.303000, -0.029900
  1.305000, -0.033400
  1.307000, -0.036800
  1.309000, -0.040000
  1.311000, -0.043100
  1.313000, -0.046300
  1.315000, -0.049500
  1.317000, -0.052800
  1.319000, -0.056000
  1.321000, -0.059100
  1.323000, -0.062200
  1.325000, -0.065100
  1.327000, -0.067800
  1.329000, -0.070500
  1.331000, -0.073200
  1.333000, -0.075700
  1.335000, -0.078000
  1.337000, -0.080300
  1.339000, -0.082400
  1.341000, -0.084400
  1.343000, -0.086300
  1.345000, -0.088000
  1.347000, -0.089400
  1.349000, -0.090700
  1.351000, -0.091800
  1.353000, -0.092800
  1.355000, -0.093600
  1.357000, -0.094300
  1.359000, -0.094700
  1.361000, -0.095000
  1.363000, -0.095200
  1.365000, -0.095200
  1.367000, -0.095000
  1.369000, -0.094600
  1.371000, -0.094100
  1.373000, -0.093400
  1.375000, -0.092500
  1.377000, -0.091500
  1.379000, -0.090300
  1.381000, -0.089000
  1.383000, -0.087800
  1.385000, -0.086500
  1.387000, -0.085200
  1.389000, -0.084100
  1.391000, -0.083000
  1.393000, -0.081900
  1.395000, -0.081000
  1.397000, -0.080400
  1.399000, -0.080000
