# z (nm)   (kJ/mol)
  0.1940  325.60499
  0.1960  321.43696
  0.1980  317.89949
  0.2000  315.10668
  0.2020  312.43726
  0.2040  309.76234
  0.2060  307.00377
  0.2080  304.22888
  0.2100  301.37099
  0.2120  298.40388
  0.2140  295.32278
  0.2160  292.09756
  0.2180  288.70636
  0.2200  285.12979
  0.2220  281.35636
  0.2240  277.37396
  0.2260  273.17472
  0.2280  268.76095
  0.2300  264.12478
  0.2320  259.28262
  0.2340  254.22946
  0.2360  248.94940
  0.2380  243.41576
  0.2400  237.61387
  0.2420  231.59612
  0.2440  225.50788
  0.2460  219.57629
  0.2480  214.02614
  0.2500  208.99631
  0.2520  204.49846
  0.2540  200.45278
  0.2560  196.75809
  0.2580  193.30671
  0.2600  189.99095
  0.2620  186.69911
  0.2640  183.35988
  0.2660  179.95044
  0.2680  176.50705
  0.2700  173.06722
  0.2720  169.68694
  0.2740  166.40406
  0.2760  163.23681
  0.2780  160.19136
  0.2800  157.26104
  0.2820  154.46243
  0.2840  151.80065
  0.2860  149.26994
  0.2880  146.85165
  0.2900  144.51615
  0.2920  142.26267
  0.2940  140.08685
  0.2960  137.99724
  0.2980  136.00079
  0.3000  134.09964
  0.3020  132.28490
  0.3040  130.56803
  0.3060  128.92539
  0.3080  127.34334
  0.3100  125.81539
  0.3120  124.31235
  0.3140  122.81791
  0.3160  121.30638
  0.3180  119.76993
  0.3200  118.18991
  0.3220  116.58393
  0.3240  114.95675
  0.3260  113.32358
  0.3280  111.68972
  0.3300  110.05617
  0.3320  108.42310
  0.3340  106.77480
  0.3360  105.11323
  0.3380  103.44374
  0.3400  101.76435
  0.3420  100.09345
  0.3440   98.43994
  0.3460   96.81843
  0.3480   95.24175
  0.3500   93.71630
  0.3520   92.24317
  0.3540   90.82484
  0.3560   89.44869
  0.3580   88.11614
  0.3600   86.81678
  0.3620   85.55666
  0.3640   84.31703
  0.3660   83.12138
  0.3680   81.95800
  0.3700   80.82469
  0.3720   79.72811
  0.3740   78.66816
  0.3760   77.62723
  0.3780   76.59548
  0.3800   75.56774
  0.3820   74.53814
  0.3840   73.51608
  0.3860   72.50892
  0.3880   71.52864
  0.3900   70.59521
  0.3920   69.70597
  0.3940   68.85768
  0.3960   68.04983
  0.3980   67.27988
  0.4000   66.53138
  0.4020   65.78803
  0.4040   65.05868
  0.4060   64.34145
  0.4080   63.63108
  0.4100   62.93643
  0.4120   62.24399
  0.4140   61.54616
  0.4160   60.84535
  0.4180   60.14789
  0.4200   59.46255
  0.4220   58.77978
  0.4240   58.11310
  0.4260   57.45048
  0.4280   56.78527
  0.4300   56.11129
  0.4320   55.41964
  0.4340   54.70554
  0.4360   53.98136
  0.4380   53.27086
  0.4400   52.55912
  0.4420   51.85655
  0.4440   51.16366
  0.4460   50.46429
  0.4480   49.74131
  0.4500   48.99188
  0.4520   48.21582
  0.4540   47.43861
  0.4560   46.67847
  0.4580   45.94815
  0.4600   45.25780
  0.4620   44.60252
  0.4640   43.95648
  0.4660   43.29491
  0.4680   42.60447
  0.4700   41.88481
  0.4720   41.13669
  0.4740   40.38026
  0.4760   39.61451
  0.4780   38.85981
  0.4800   38.11964
  0.4820   37.41710
  0.4840   36.73490
  0.4860   36.07261
  0.4880   35.40071
  0.4900   34.70484
  0.4920   33.98427
  0.4940   33.23095
  0.4960   32.44772
  0.4980   31.62401
  0.5000   30.78538
  0.5020   29.94180
  0.5040   29.09545
  0.5060   28.25347
  0.5080   27.42781
  0.5100   26.61514
  0.5120   25.80859
  0.5140   25.00443
  0.5160   24.20450
  0.5180   23.40957
  0.5200   22.61364
  0.5220   21.82421
  0.5240   21.04931
  0.5260   20.29481
  0.5280   19.55924
  0.5300   18.86112
  0.5320   18.20134
  0.5340   17.58929
  0.5360   17.01174
  0.5380   16.46089
  0.5400   15.93781
  0.5420   15.42958
  0.5440   14.93293
  0.5460   14.45116
  0.5480   13.97610
  0.5500   13.51137
  0.5520   13.05265
  0.5540   12.61408
  0.5560   12.19463
  0.5580   11.79688
  0.5600   11.41676
  0.5620   11.06845
  0.5640   10.73859
  0.5660   10.42906
  0.5680   10.13876
  0.5700    9.86634
  0.5720    9.60539
  0.5740    9.36029
  0.5760    9.12757
  0.5780    8.89836
  0.5800    8.67569
  0.5820    8.46000
  0.5840    8.25219
  0.5860    8.05192
  0.5880    7.85979
  0.5900    7.69013
  0.5920    7.53080
  0.5940    7.38330
  0.5960    7.25482
  0.5980    7.13072
  0.6000    7.01915
  0.6020    6.91541
  0.6040    6.81249
  0.6060    6.71640
  0.6080    6.60705
  0.6100    6.49301
  0.6120    6.37970
  0.6140    6.26286
  0.6160    6.14345
  0.6180    6.04245
  0.6200    5.93936
  0.6220    5.85267
  0.6240    5.77766
  0.6260    5.71611
  0.6280    5.66398
  0.6300    5.62304
  0.6320    5.57564
  0.6340    5.52416
  0.6360    5.45735
  0.6380    5.37700
  0.6400    5.27991
  0.6420    5.16418
  0.6440    5.04533
  0.6460    4.92464
  0.6480    4.81882
  0.6500    4.72749
  0.6520    4.65897
  0.6540    4.61764
  0.6560    4.59520
  0.6580    4.58631
  0.6600    4.57359
  0.6620    4.55764
  0.6640    4.51933
  0.6660    4.45400
  0.6680    4.37073
  0.6700    4.27120
  0.6720    4.16659
  0.6740    4.07619
  0.6760    4.00421
  0.6780    3.95443
  0.6800    3.92930
  0.6820    3.92012
  0.6840    3.92248
  0.6860    3.92173
  0.6880    3.90057
  0.6900    3.87324
  0.6920    3.81807
  0.6940    3.75634
  0.6960    3.68673
  0.6980    3.62740
  0.7000    3.56471
  0.7020    3.50680
  0.7040    3.46134
  0.7060    3.42850
  0.7080    3.40252
  0.7100    3.37142
  0.7120    3.34387
  0.7140    3.31015
  0.7160    3.28799
  0.7180    3.25737
  0.7200    3.23757
  0.7220    3.22221
  0.7240    3.20820
  0.7260    3.19729
  0.7280    3.19592
  0.7300    3.20157
  0.7320    3.21004
  0.7340    3.21965
  0.7360    3.23198
  0.7380    3.24157
  0.7400    3.24953
  0.7420    3.23995
  0.7440    3.23172
  0.7460    3.21153
  0.7480    3.18825
  0.7500    3.15869
  0.7520    3.12745
  0.7540    3.09381
  0.7560    3.05660
  0.7580    3.02314
  0.7600    2.99375
  0.7620    2.96602
  0.7640    2.93664
  0.7660    2.91187
  0.7680    2.88411
  0.7700    2.84828
  0.7720    2.80395
  0.7740    2.75252
  0.7760    2.69015
  0.7780    2.62708
  0.7800    2.55501
  0.7820    2.47690
  0.7840    2.39842
  0.7860    2.30747
  0.7880    2.20640
  0.7900    2.10769
  0.7920    2.00304
  0.7940    1.88985
  0.7960    1.77568
  0.7980    1.66213
  0.8000    1.54732
  0.8020    1.43959
  0.8040    1.33478
  0.8060    1.23737
  0.8080    1.14309
  0.8100    1.05507
  0.8120    0.96753
  0.8140    0.88347
  0.8160    0.80266
  0.8180    0.72309
  0.8200    0.63595
  0.8220    0.54987
  0.8240    0.46843
  0.8260    0.38619
  0.8280    0.30296
  0.8300    0.22596
  0.8320    0.14922
  0.8340    0.07869
  0.8360    0.00271
  0.8380   -0.06298
  0.8400   -0.12485
  0.8420   -0.18065
  0.8440   -0.23159
  0.8460   -0.27991
  0.8480   -0.33085
  0.8500   -0.37202
  0.8520   -0.41415
  0.8540   -0.45874
  0.8560   -0.49634
  0.8580   -0.53042
  0.8600   -0.56194
  0.8620   -0.58791
  0.8640   -0.60985
  0.8660   -0.62495
  0.8680   -0.63782
  0.8700   -0.64831
  0.8720   -0.65661
  0.8740   -0.66141
  0.8760   -0.66392
  0.8780   -0.67008
  0.8800   -0.68750
  0.8820   -0.70021
  0.8840   -0.71857
  0.8860   -0.73744
  0.8880   -0.75666
  0.8900   -0.77571
  0.8920   -0.77871
  0.8940   -0.78922
  0.8960   -0.78967
  0.8980   -0.78715
  0.9000   -0.78870
  0.9020   -0.77457
  0.9040   -0.76694
  0.9060   -0.75493
  0.9080   -0.74718
  0.9100   -0.74176
  0.9120   -0.73254
  0.9140   -0.71895
  0.9160   -0.70465
  0.9180   -0.69149
  0.9200   -0.67751
  0.9220   -0.66278
  0.9240   -0.65215
  0.9260   -0.63652
  0.9280   -0.62515
  0.9300   -0.61686
  0.9320   -0.60775
  0.9340   -0.60012
  0.9360   -0.59196
  0.9380   -0.58283
  0.9400   -0.57289
  0.9420   -0.55883
  0.9440   -0.54289
  0.9460   -0.52802
  0.9480   -0.50740
  0.9500   -0.48374
  0.9520   -0.45786
  0.9540   -0.43321
  0.9560   -0.40867
  0.9580   -0.38993
  0.9600   -0.36479
  0.9620   -0.33602
  0.9640   -0.30410
  0.9660   -0.28723
  0.9680   -0.27291
  0.9700   -0.25739
  0.9720   -0.24259
  0.9740   -0.22559
  0.9760   -0.21145
  0.9780   -0.19610
  0.9800   -0.17616
  0.9820   -0.15586
  0.9840   -0.13578
  0.9860   -0.11343
  0.9880   -0.08858
  0.9900   -0.06058
  0.9920   -0.03462
  0.9940   -0.00692
  0.9960    0.02293
  0.9980    0.04822
  1.0000    0.07133
  1.0020    0.09709
  1.0040    0.12044
  1.0060    0.14262
  1.0080    0.16020
  1.0100    0.17862
  1.0120    0.19266
  1.0140    0.20253
  1.0160    0.21892
  1.0180    0.22613
  1.0200    0.23457
  1.0220    0.24823
  1.0240    0.25802
  1.0260    0.26677
  1.0280    0.27862
  1.0300    0.29353
  1.0320    0.29947
  1.0340    0.31107
  1.0360    0.32542
  1.0380    0.33689
  1.0400    0.34758
  1.0420    0.36061
  1.0440    0.37461
  1.0460    0.38985
  1.0480    0.40406
  1.0500    0.41424
  1.0520    0.42573
  1.0540    0.43467
  1.0560    0.43727
  1.0580    0.43882
  1.0600    0.43947
  1.0620    0.44027
  1.0640    0.43583
  1.0660    0.44584
  1.0680    0.45005
  1.0700    0.45824
  1.0720    0.46971
  1.0740    0.47283
  1.0760    0.47037
  1.0780    0.47159
  1.0800    0.46246
  1.0820    0.44491
  1.0840    0.42193
  1.0860    0.39355
  1.0880    0.36216
  1.0900    0.33655
  1.0920    0.31166
  1.0940    0.28417
  1.0960    0.26268
  1.0980    0.24619
  1.1000    0.23855
  1.1020    0.23710
  1.1040    0.23643
  1.1060    0.23516
  1.1080    0.23567
  1.1100    0.23486
  1.1120    0.23445
  1.1140    0.23174
  1.1160    0.22483
  1.1180    0.21088
  1.1200    0.20067
  1.1220    0.18112
  1.1240    0.16077
  1.1260    0.13424
  1.1280    0.11392
  1.1300    0.10565
  1.1320    0.09245
  1.1340    0.08413
  1.1360    0.08205
  1.1380    0.08345
  1.1400    0.09199
  1.1420    0.09431
  1.1440    0.10441
  1.1460    0.11151
  1.1480    0.10977
  1.1500    0.10495
  1.1520    0.09786
  1.1540    0.08174
  1.1560    0.06625
  1.1580    0.04775
  1.1600    0.03546
  1.1620    0.02155
  1.1640    0.01699
  1.1660    0.01739
  1.1680    0.01969
  1.1700    0.02841
  1.1720    0.03894
  1.1740    0.04829
  1.1760    0.05670
  1.1780    0.05974
  1.1800    0.05105
  1.1820    0.04056
  1.1840    0.02824
  1.1860    0.00977
  1.1880   -0.00850
  1.1900   -0.03147
  1.1920   -0.04468
  1.1940   -0.05846
  1.1960   -0.06856
  1.1980   -0.06780
  1.2000   -0.06397
