# z (nm)   (kJ/mol)
  0.078000,267.471830
  0.080000,265.132810
  0.082000,262.409360
  0.084000,260.088920
  0.086000,257.782510
  0.088000,255.333180
  0.090000,252.814770
  0.092000,250.365090
  0.094000,247.915090
  0.096000,245.395560
  0.098000,242.818480
  0.100000,240.173290
  0.102000,237.451850
  0.104000,234.624200
  0.106000,231.699720
  0.108000,228.663120
  0.110000,225.506150
  0.112000,222.213090
  0.114000,218.776230
  0.116000,215.185970
  0.118000,211.443670
  0.120000,207.540570
  0.122000,203.470730
  0.124000,199.254900
  0.126000,194.898460
  0.128000,190.425780
  0.130000,185.869270
  0.132000,181.257070
  0.134000,176.631030
  0.136000,172.020300
  0.138000,167.455690
  0.140000,162.962890
  0.142000,158.551210
  0.144000,154.225130
  0.146000,149.989690
  0.148000,145.846080
  0.150000,141.794080
  0.152000,137.835330
  0.154000,133.970570
  0.156000,130.200750
  0.158000,126.532970
  0.160000,122.952990
  0.162000,119.464800
  0.164000,116.062160
  0.166000,112.723250
  0.168000,109.436670
  0.170000,106.197800
  0.172000,102.983930
  0.174000, 99.783100
  0.176000, 96.582220
  0.178000, 93.378210
  0.180000, 90.160570
  0.182000, 86.938020
  0.184000, 83.725410
  0.186000, 80.563410
  0.188000, 77.478650
  0.190000, 74.501250
  0.192000, 71.640200
  0.194000, 68.870830
  0.196000, 66.163860
  0.198000, 63.478230
  0.200000, 60.769210
  0.202000, 58.037050
  0.204000, 55.298180
  0.206000, 52.587560
  0.208000, 49.946620
  0.210000, 47.399940
  0.212000, 44.957920
  0.214000, 42.615800
  0.216000, 40.349320
  0.218000, 38.138940
  0.220000, 35.948120
  0.222000, 33.771940
  0.224000, 31.605300
  0.226000, 29.480480
  0.228000, 27.413630
  0.230000, 25.429960
  0.232000, 23.529710
  0.234000, 21.708280
  0.236000, 19.957460
  0.238000, 18.256140
  0.240000, 16.598980
  0.242000, 14.979690
  0.244000, 13.410120
  0.246000, 11.882920
  0.248000, 10.398280
  0.250000,  8.950750
  0.252000,  7.540030
  0.254000,  6.165110
  0.256000,  4.807690
  0.258000,  3.491190
  0.260000,  2.224940
  0.262000,  1.029000
  0.264000, -0.096560
  0.266000, -1.146770
  0.268000, -2.142330
  0.270000, -3.094430
  0.272000, -4.027740
  0.274000, -4.940560
  0.276000, -5.828800
  0.278000, -6.688980
  0.280000, -7.505510
  0.282000, -8.254560
  0.284000, -8.943870
  0.286000, -9.565930
  0.288000,-10.148670
  0.290000,-10.704720
  0.292000,-11.243970
  0.294000,-11.773110
  0.296000,-12.285090
  0.298000,-12.775960
  0.300000,-13.221640
  0.302000,-13.625290
  0.304000,-13.990030
  0.306000,-14.330410
  0.308000,-14.649660
  0.310000,-14.954810
  0.312000,-15.243800
  0.314000,-15.521150
  0.316000,-15.792530
  0.318000,-16.040000
  0.320000,-16.262210
  0.322000,-16.464030
  0.324000,-16.643460
  0.326000,-16.790680
  0.328000,-16.930580
  0.330000,-17.048850
  0.332000,-17.154690
  0.334000,-17.254590
  0.336000,-17.348800
  0.338000,-17.431660
  0.340000,-17.505220
  0.342000,-17.568280
  0.344000,-17.610640
  0.346000,-17.636690
  0.348000,-17.645430
  0.350000,-17.650590
  0.352000,-17.649180
  0.354000,-17.637990
  0.356000,-17.620220
  0.358000,-17.580420
  0.360000,-17.518370
  0.362000,-17.440620
  0.364000,-17.348100
  0.366000,-17.238720
  0.368000,-17.123590
  0.370000,-17.006380
  0.372000,-16.882500
  0.374000,-16.759020
  0.376000,-16.629580
  0.378000,-16.493090
  0.380000,-16.346340
  0.382000,-16.191190
  0.384000,-16.036020
  0.386000,-15.856300
  0.388000,-15.669280
  0.390000,-15.468620
  0.392000,-15.260710
  0.394000,-15.038310
  0.396000,-14.805520
  0.398000,-14.568560
  0.400000,-14.321930
  0.402000,-14.064920
  0.404000,-13.814360
  0.406000,-13.571040
  0.408000,-13.347690
  0.410000,-13.140190
  0.412000,-12.949730
  0.414000,-12.765230
  0.416000,-12.586580
  0.418000,-12.393000
  0.420000,-12.186160
  0.422000,-11.940010
  0.424000,-11.664360
  0.426000,-11.360900
  0.428000,-11.046870
  0.430000,-10.735280
  0.432000,-10.447740
  0.434000,-10.184900
  0.436000, -9.959680
  0.438000, -9.769800
  0.440000, -9.608730
  0.442000, -9.471060
  0.444000, -9.329570
  0.446000, -9.180720
  0.448000, -9.018830
  0.450000, -8.853540
  0.452000, -8.665920
  0.454000, -8.474770
  0.456000, -8.282330
  0.458000, -8.103500
  0.460000, -7.936380
  0.462000, -7.788580
  0.464000, -7.663900
  0.466000, -7.555460
  0.468000, -7.457570
  0.470000, -7.386290
  0.472000, -7.320950
  0.474000, -7.261750
  0.476000, -7.205090
  0.478000, -7.150340
  0.480000, -7.093540
  0.482000, -7.036940
  0.484000, -6.979150
  0.486000, -6.918580
  0.488000, -6.857030
  0.490000, -6.797960
  0.492000, -6.740120
  0.494000, -6.681000
  0.496000, -6.620120
  0.498000, -6.555880
  0.500000, -6.482770
  0.502000, -6.416270
  0.504000, -6.350770
  0.506000, -6.291260
  0.508000, -6.235980
  0.510000, -6.182430
  0.512000, -6.134020
  0.514000, -6.080110
  0.516000, -6.024230
  0.518000, -5.963400
  0.520000, -5.892380
  0.522000, -5.808680
  0.524000, -5.732270
  0.526000, -5.652180
  0.528000, -5.570100
  0.530000, -5.490940
  0.532000, -5.425810
  0.534000, -5.363960
  0.536000, -5.312200
  0.538000, -5.257950
  0.540000, -5.210640
  0.542000, -5.158240
  0.544000, -5.110860
  0.546000, -5.065830
  0.548000, -5.015190
  0.550000, -4.964050
  0.552000, -4.906510
  0.554000, -4.843100
  0.556000, -4.779160
  0.558000, -4.713570
  0.560000, -4.644560
  0.562000, -4.579610
  0.564000, -4.519630
  0.566000, -4.454840
  0.568000, -4.392080
  0.570000, -4.332030
  0.572000, -4.268070
  0.574000, -4.208130
  0.576000, -4.136550
  0.578000, -4.065730
  0.580000, -3.991000
  0.582000, -3.914900
  0.584000, -3.843230
  0.586000, -3.761210
  0.588000, -3.691800
  0.590000, -3.627890
  0.592000, -3.563990
  0.594000, -3.505260
  0.596000, -3.444770
  0.598000, -3.388850
  0.600000, -3.325410
  0.602000, -3.266650
  0.604000, -3.202670
  0.606000, -3.132150
  0.608000, -3.054290
  0.610000, -2.965760
  0.612000, -2.891530
  0.614000, -2.810860
  0.616000, -2.737940
  0.618000, -2.663030
  0.620000, -2.595680
  0.622000, -2.533390
  0.624000, -2.483640
  0.626000, -2.440230
  0.628000, -2.401610
  0.630000, -2.363720
  0.632000, -2.328920
  0.634000, -2.298270
  0.636000, -2.270220
  0.638000, -2.245280
  0.640000, -2.230830
  0.642000, -2.221320
  0.644000, -2.216370
  0.646000, -2.215400
  0.648000, -2.219840
  0.650000, -2.216690
  0.652000, -2.210890
  0.654000, -2.202250
  0.656000, -2.184290
  0.658000, -2.169560
  0.660000, -2.159840
  0.662000, -2.157810
  0.664000, -2.153170
  0.666000, -2.141840
  0.668000, -2.128990
  0.670000, -2.113570
  0.672000, -2.093750
  0.674000, -2.054700
  0.676000, -2.010880
  0.678000, -1.960610
  0.680000, -1.906170
  0.682000, -1.855960
  0.684000, -1.814700
  0.686000, -1.784590
  0.688000, -1.771690
  0.690000, -1.768300
  0.692000, -1.770170
  0.694000, -1.780490
  0.696000, -1.784610
  0.698000, -1.771280
  0.700000, -1.749310
  0.702000, -1.710190
  0.704000, -1.655000
  0.706000, -1.597000
  0.708000, -1.542330
  0.710000, -1.485640
  0.712000, -1.432570
  0.714000, -1.380970
  0.716000, -1.340660
  0.718000, -1.302450
  0.720000, -1.266090
  0.722000, -1.236770
  0.724000, -1.207400
  0.726000, -1.186570
  0.728000, -1.182350
  0.730000, -1.180470
  0.732000, -1.181150
  0.734000, -1.181900
  0.736000, -1.171240
  0.738000, -1.154650
  0.740000, -1.133800
  0.742000, -1.098910
  0.744000, -1.065430
  0.746000, -1.028000
  0.748000, -0.991190
  0.750000, -0.965650
  0.752000, -0.948150
  0.754000, -0.935360
  0.756000, -0.925440
  0.758000, -0.922400
  0.760000, -0.921610
  0.762000, -0.929670
  0.764000, -0.945600
  0.766000, -0.965090
  0.768000, -0.990740
  0.770000, -1.014800
  0.772000, -1.033580
  0.774000, -1.030510
  0.776000, -1.006810
  0.778000, -0.955370
  0.780000, -0.881060
  0.782000, -0.793390
  0.784000, -0.707410
  0.786000, -0.643730
  0.788000, -0.613910
  0.790000, -0.616310
  0.792000, -0.644650
  0.794000, -0.685730
  0.796000, -0.721620
  0.798000, -0.754960
  0.800000, -0.764220
  0.802000, -0.759990
  0.804000, -0.738870
  0.806000, -0.707610
  0.808000, -0.669510
  0.810000, -0.632760
  0.812000, -0.612960
  0.814000, -0.586310
  0.816000, -0.568180
  0.818000, -0.561360
  0.820000, -0.561960
  0.822000, -0.563880
  0.824000, -0.571280
  0.826000, -0.570880
  0.828000, -0.567580
  0.830000, -0.549380
  0.832000, -0.526500
  0.834000, -0.495590
  0.836000, -0.453860
  0.838000, -0.423760
  0.840000, -0.393300
  0.842000, -0.353480
  0.844000, -0.339960
  0.846000, -0.330410
  0.848000, -0.320770
  0.850000, -0.318050
  0.852000, -0.314070
  0.854000, -0.309350
  0.856000, -0.302830
  0.858000, -0.300530
  0.860000, -0.294910
  0.862000, -0.290080
  0.864000, -0.284420
  0.866000, -0.279200
  0.868000, -0.269590
  0.870000, -0.255550
  0.872000, -0.232720
  0.874000, -0.208430
  0.876000, -0.183590
  0.878000, -0.166250
  0.880000, -0.147670
  0.882000, -0.145570
  0.884000, -0.153530
  0.886000, -0.175120
  0.888000, -0.208930
  0.890000, -0.251840
  0.892000, -0.292420
  0.894000, -0.320590
  0.896000, -0.336650
  0.898000, -0.330100
  0.900000, -0.301710
  0.902000, -0.249980
  0.904000, -0.182030
  0.906000, -0.108620
  0.908000, -0.043960
  0.910000,  0.008780
  0.912000,  0.036170
  0.914000,  0.035860
  0.916000,  0.015340
  0.918000, -0.031130
  0.920000, -0.087330
  0.922000, -0.142100
  0.924000, -0.193920
  0.926000, -0.222090
  0.928000, -0.227760
  0.930000, -0.217390
  0.932000, -0.194220
  0.934000, -0.148620
  0.936000, -0.098310
  0.938000, -0.040820
  0.940000,  0.008580
  0.942000,  0.047290
  0.944000,  0.072140
  0.946000,  0.081750
  0.948000,  0.078990
  0.950000,  0.062620
  0.952000,  0.040190
  0.954000,  0.006720
  0.956000, -0.016900
  0.958000, -0.039520
  0.960000, -0.053970
  0.962000, -0.056620
  0.964000, -0.048680
  0.966000, -0.027170
  0.968000,  0.000450
  0.970000,  0.032310
  0.972000,  0.070110
  0.974000,  0.104390
  0.976000,  0.133630
  0.978000,  0.152510
  0.980000,  0.160870
  0.982000,  0.163480
  0.984000,  0.166550
  0.986000,  0.154040
  0.988000,  0.140170
  0.990000,  0.125510
  0.992000,  0.115590
  0.994000,  0.109570
  0.996000,  0.104540
  0.998000,  0.100370
  1.000000,  0.102650
