# z (nm)   (kJ/mol)
  0.377000, 19.318200
  0.379000, 18.979500
  0.381000, 18.655300
  0.383000, 18.304600
  0.385000, 17.932700
  0.387000, 17.569200
  0.389000, 17.186800
  0.391000, 16.797000
  0.393000, 16.421100
  0.395000, 16.052000
  0.397000, 15.682400
  0.399000, 15.306800
  0.401000, 14.925700
  0.403000, 14.539500
  0.405000, 14.153600
  0.407000, 13.766500
  0.409000, 13.378600
  0.411000, 12.996100
  0.413000, 12.614000
  0.415000, 12.235700
  0.417000, 11.861200
  0.419000, 11.485700
  0.421000, 11.113600
  0.423000, 10.746400
  0.425000, 10.387000
  0.427000, 10.034600
  0.429000,  9.684700
  0.431000,  9.339400
  0.433000,  9.001000
  0.435000,  8.673600
  0.437000,  8.353200
  0.439000,  8.034900
  0.441000,  7.721200
  0.443000,  7.412400
  0.445000,  7.110900
  0.447000,  6.818300
  0.449000,  6.533100
  0.451000,  6.254200
  0.453000,  5.979500
  0.455000,  5.710000
  0.457000,  5.446800
  0.459000,  5.191900
  0.461000,  4.945000
  0.463000,  4.703900
  0.465000,  4.468300
  0.467000,  4.237500
  0.469000,  4.015300
  0.471000,  3.799800
  0.473000,  3.590000
  0.475000,  3.385200
  0.477000,  3.186500
  0.479000,  2.994800
  0.481000,  2.807900
  0.483000,  2.627200
  0.485000,  2.453600
  0.487000,  2.285500
  0.489000,  2.123100
  0.491000,  1.966400
  0.493000,  1.814800
  0.495000,  1.668700
  0.497000,  1.528600
  0.499000,  1.395100
  0.501000,  1.267300
  0.503000,  1.144900
  0.505000,  1.028500
  0.507000,  0.918000
  0.509000,  0.813300
  0.511000,  0.714100
  0.513000,  0.620300
  0.515000,  0.532200
  0.517000,  0.449600
  0.519000,  0.372600
  0.521000,  0.300500
  0.523000,  0.233700
  0.525000,  0.172800
  0.527000,  0.116700
  0.529000,  0.065500
  0.531000,  0.019700
  0.533000, -0.021200
  0.535000, -0.057900
  0.537000, -0.089800
  0.539000, -0.116900
  0.541000, -0.139600
  0.543000, -0.158300
  0.545000, -0.172900
  0.547000, -0.183100
  0.549000, -0.189300
  0.551000, -0.191400
  0.553000, -0.189600
  0.555000, -0.184700
  0.557000, -0.176200
  0.559000, -0.164800
  0.561000, -0.151000
  0.563000, -0.134600
  0.565000, -0.115600
  0.567000, -0.093700
  0.569000, -0.069300
  0.571000, -0.043400
  0.573000, -0.015300
  0.575000,  0.015000
  0.577000,  0.046800
  0.579000,  0.079800
  0.581000,  0.114400
  0.583000,  0.150200
  0.585000,  0.186800
  0.587000,  0.224600
  0.589000,  0.262600
  0.591000,  0.300700
  0.593000,  0.338900
  0.595000,  0.377300
  0.597000,  0.415600
  0.599000,  0.453600
  0.601000,  0.490800
  0.603000,  0.527300
  0.605000,  0.563300
  0.607000,  0.598500
  0.609000,  0.632700
  0.611000,  0.666100
  0.613000,  0.698100
  0.615000,  0.728700
  0.617000,  0.758000
  0.619000,  0.785500
  0.621000,  0.811400
  0.623000,  0.835600
  0.625000,  0.858000
  0.627000,  0.878700
  0.629000,  0.897400
  0.631000,  0.914200
  0.633000,  0.929000
  0.635000,  0.941800
  0.637000,  0.952500
  0.639000,  0.961000
  0.641000,  0.967400
  0.643000,  0.971800
  0.645000,  0.974300
  0.647000,  0.974800
  0.649000,  0.973300
  0.651000,  0.969900
  0.653000,  0.964700
  0.655000,  0.957500
  0.657000,  0.948500
  0.659000,  0.937600
  0.661000,  0.925000
  0.663000,  0.910900
  0.665000,  0.895200
  0.667000,  0.877900
  0.669000,  0.859400
  0.671000,  0.839700
  0.673000,  0.818800
  0.675000,  0.796500
  0.677000,  0.773300
  0.679000,  0.749100
  0.681000,  0.724000
  0.683000,  0.698300
  0.685000,  0.672100
  0.687000,  0.645000
  0.689000,  0.617500
  0.691000,  0.589900
  0.693000,  0.562200
  0.695000,  0.534300
  0.697000,  0.506400
  0.699000,  0.478400
  0.701000,  0.450600
  0.703000,  0.423100
  0.705000,  0.396100
  0.707000,  0.369700
  0.709000,  0.343800
  0.711000,  0.318600
  0.713000,  0.294000
  0.715000,  0.270100
  0.717000,  0.247000
  0.719000,  0.225000
  0.721000,  0.204100
  0.723000,  0.184200
  0.725000,  0.165400
  0.727000,  0.147700
  0.729000,  0.131100
  0.731000,  0.115700
  0.733000,  0.101800
  0.735000,  0.089000
  0.737000,  0.077400
  0.739000,  0.067200
  0.741000,  0.058300
  0.743000,  0.050700
  0.745000,  0.044400
  0.747000,  0.039400
  0.749000,  0.035600
  0.751000,  0.033000
  0.753000,  0.031700
  0.755000,  0.031700
  0.757000,  0.032700
  0.759000,  0.034800
  0.761000,  0.037800
  0.763000,  0.042000
  0.765000,  0.047000
  0.767000,  0.052900
  0.769000,  0.059700
  0.771000,  0.067200
  0.773000,  0.075300
  0.775000,  0.084100
  0.777000,  0.093500
  0.779000,  0.103500
  0.781000,  0.113900
  0.783000,  0.124700
  0.785000,  0.135800
  0.787000,  0.147100
  0.789000,  0.158300
  0.791000,  0.169500
  0.793000,  0.180800
  0.795000,  0.192400
  0.797000,  0.204000
  0.799000,  0.215300
  0.801000,  0.226400
  0.803000,  0.237300
  0.805000,  0.247900
  0.807000,  0.258200
  0.809000,  0.268100
  0.811000,  0.277700
  0.813000,  0.286800
  0.815000,  0.295500
  0.817000,  0.303600
  0.819000,  0.311100
  0.821000,  0.318100
  0.823000,  0.324500
  0.825000,  0.330200
  0.827000,  0.335500
  0.829000,  0.340100
  0.831000,  0.344100
  0.833000,  0.347500
  0.835000,  0.350200
  0.837000,  0.352300
  0.839000,  0.353800
  0.841000,  0.354700
  0.843000,  0.355100
  0.845000,  0.354800
  0.847000,  0.353900
  0.849000,  0.352600
  0.851000,  0.350600
  0.853000,  0.348100
  0.855000,  0.345100
  0.857000,  0.341600
  0.859000,  0.337700
  0.861000,  0.333400
  0.863000,  0.328700
  0.865000,  0.323500
  0.867000,  0.317900
  0.869000,  0.312000
  0.871000,  0.305700
  0.873000,  0.299200
  0.875000,  0.292300
  0.877000,  0.285400
  0.879000,  0.278200
  0.881000,  0.270800
  0.883000,  0.263300
  0.885000,  0.255700
  0.887000,  0.247900
  0.889000,  0.240300
  0.891000,  0.232600
  0.893000,  0.224700
  0.895000,  0.216700
  0.897000,  0.208900
  0.899000,  0.201100
  0.901000,  0.193500
  0.903000,  0.185800
  0.905000,  0.178300
  0.907000,  0.170800
  0.909000,  0.163600
  0.911000,  0.156600
  0.913000,  0.149800
  0.915000,  0.143200
  0.917000,  0.136800
  0.919000,  0.130600
  0.921000,  0.124600
  0.923000,  0.118800
  0.925000,  0.113400
  0.927000,  0.108300
  0.929000,  0.103400
  0.931000,  0.098800
  0.933000,  0.094600
  0.935000,  0.090800
  0.937000,  0.087200
  0.939000,  0.083900
  0.941000,  0.080900
  0.943000,  0.078300
  0.945000,  0.075900
  0.947000,  0.074000
  0.949000,  0.072300
  0.951000,  0.071000
  0.953000,  0.070000
  0.955000,  0.069200
  0.957000,  0.068800
  0.959000,  0.068700
  0.961000,  0.068900
  0.963000,  0.069400
  0.965000,  0.070200
  0.967000,  0.071300
  0.969000,  0.072600
  0.971000,  0.074200
  0.973000,  0.076000
  0.975000,  0.078100
  0.977000,  0.080300
  0.979000,  0.082700
  0.981000,  0.085300
  0.983000,  0.088100
  0.985000,  0.091100
  0.987000,  0.094100
  0.989000,  0.097200
  0.991000,  0.100400
  0.993000,  0.103700
  0.995000,  0.107100
  0.997000,  0.110600
  0.999000,  0.114000
  1.001000,  0.117500
  1.003000,  0.120900
  1.005000,  0.124400
  1.007000,  0.127800
  1.009000,  0.131100
  1.011000,  0.134300
  1.013000,  0.137400
  1.015000,  0.140400
  1.017000,  0.143300
  1.019000,  0.146100
  1.021000,  0.148600
  1.023000,  0.151100
  1.025000,  0.153400
  1.027000,  0.155600
  1.029000,  0.157600
  1.031000,  0.159300
  1.033000,  0.160800
  1.035000,  0.162200
  1.037000,  0.163300
  1.039000,  0.164100
  1.041000,  0.164700
  1.043000,  0.165100
  1.045000,  0.165200
  1.047000,  0.165200
  1.049000,  0.164900
  1.051000,  0.164400
  1.053000,  0.163600
  1.055000,  0.162500
  1.057000,  0.161300
  1.059000,  0.159900
  1.061000,  0.158200
  1.063000,  0.156300
  1.065000,  0.154200
  1.067000,  0.152000
  1.069000,  0.149700
  1.071000,  0.147100
  1.073000,  0.144400
  1.075000,  0.141500
  1.077000,  0.138500
  1.079000,  0.135400
  1.081000,  0.132300
  1.083000,  0.128900
  1.085000,  0.125500
  1.087000,  0.122000
  1.089000,  0.118500
  1.091000,  0.114800
  1.093000,  0.111100
  1.095000,  0.107300
  1.097000,  0.103600
  1.099000,  0.099900
  1.101000,  0.096100
  1.103000,  0.092400
  1.105000,  0.088600
  1.107000,  0.084900
  1.109000,  0.081200
  1.111000,  0.077500
  1.113000,  0.073900
  1.115000,  0.070500
  1.117000,  0.067100
  1.119000,  0.063700
  1.121000,  0.060300
  1.123000,  0.057000
  1.125000,  0.053900
  1.127000,  0.050800
  1.129000,  0.047800
  1.131000,  0.044900
  1.133000,  0.042200
  1.135000,  0.039500
  1.137000,  0.036900
  1.139000,  0.034400
  1.141000,  0.032000
  1.143000,  0.029700
  1.145000,  0.027500
  1.147000,  0.025300
  1.149000,  0.023300
  1.151000,  0.021300
  1.153000,  0.019400
  1.155000,  0.017500
  1.157000,  0.015700
  1.159000,  0.014000
  1.161000,  0.012400
  1.163000,  0.010800
  1.165000,  0.009200
  1.167000,  0.007700
  1.169000,  0.006300
  1.171000,  0.004900
  1.173000,  0.003500
  1.175000,  0.002200
  1.177000,  0.000900
  1.179000, -0.000200
  1.181000, -0.001300
  1.183000, -0.002400
  1.185000, -0.003500
  1.187000, -0.004600
  1.189000, -0.005700
  1.191000, -0.006700
  1.193000, -0.007600
  1.195000, -0.008600
  1.197000, -0.009400
  1.199000, -0.010100
  1.201000, -0.010900
  1.203000, -0.011600
  1.205000, -0.012300
  1.207000, -0.012800
  1.209000, -0.013300
  1.211000, -0.013700
  1.213000, -0.014100
  1.215000, -0.014400
  1.217000, -0.014600
  1.219000, -0.014700
  1.221000, -0.014700
  1.223000, -0.014700
  1.225000, -0.014600
  1.227000, -0.014400
  1.229000, -0.014200
  1.231000, -0.013800
  1.233000, -0.013500
  1.235000, -0.013100
  1.237000, -0.012500
  1.239000, -0.011900
  1.241000, -0.011300
  1.243000, -0.010600
  1.245000, -0.009900
  1.247000, -0.009200
  1.249000, -0.008400
  1.251000, -0.007700
  1.253000, -0.007000
  1.255000, -0.006200
  1.257000, -0.005400
  1.259000, -0.004700
  1.261000, -0.004100
  1.263000, -0.003500
  1.265000, -0.002800
  1.267000, -0.002300
  1.269000, -0.001700
  1.271000, -0.001200
  1.273000, -0.000700
  1.275000, -0.000400
  1.277000, -0.000100
  1.279000,  0.000100
  1.281000,  0.000200
  1.283000,  0.000200
  1.285000,  0.000100
  1.287000, -0.000200
  1.289000, -0.000400
  1.291000, -0.000800
  1.293000, -0.001200
  1.295000, -0.001800
  1.297000, -0.002400
  1.299000, -0.003100
  1.301000, -0.003900
  1.303000, -0.004700
  1.305000, -0.005500
  1.307000, -0.006300
  1.309000, -0.007100
  1.311000, -0.008000
  1.313000, -0.008900
  1.315000, -0.009800
  1.317000, -0.010600
  1.319000, -0.011400
  1.321000, -0.012100
  1.323000, -0.012800
  1.325000, -0.013400
  1.327000, -0.013900
  1.329000, -0.014300
  1.331000, -0.014500
  1.333000, -0.014600
  1.335000, -0.014600
  1.337000, -0.014500
  1.339000, -0.014100
  1.341000, -0.013500
  1.343000, -0.012700
  1.345000, -0.011700
  1.347000, -0.010600
  1.349000, -0.009200
  1.351000, -0.007600
  1.353000, -0.005800
  1.355000, -0.003900
  1.357000, -0.001800
  1.359000,  0.000600
  1.361000,  0.003200
  1.363000,  0.006000
  1.365000,  0.008800
  1.367000,  0.012000
  1.369000,  0.015300
  1.371000,  0.018700
  1.373000,  0.022200
  1.375000,  0.025800
  1.377000,  0.029600
  1.379000,  0.033500
  1.381000,  0.037200
  1.383000,  0.040900
  1.385000,  0.044900
  1.387000,  0.048900
  1.389000,  0.052500
  1.391000,  0.055700
  1.393000,  0.058900
  1.395000,  0.061900
  1.397000,  0.064500
  1.399000,  0.066700
