# z (nm)   (kJ/mol)
  0.429000, 11.771800
  0.431000, 11.327800
  0.433000, 10.869400
  0.435000, 10.398500
  0.437000,  9.949700
  0.439000,  9.490300
  0.441000,  9.007100
  0.443000,  8.514500
  0.445000,  8.039000
  0.447000,  7.584900
  0.449000,  7.129200
  0.451000,  6.663100
  0.453000,  6.202800
  0.455000,  5.749000
  0.457000,  5.299300
  0.459000,  4.857600
  0.461000,  4.430000
  0.463000,  4.011300
  0.465000,  3.596700
  0.467000,  3.196600
  0.469000,  2.813800
  0.471000,  2.442600
  0.473000,  2.084400
  0.475000,  1.732000
  0.477000,  1.388200
  0.479000,  1.056800
  0.481000,  0.735000
  0.483000,  0.422700
  0.485000,  0.120200
  0.487000, -0.170800
  0.489000, -0.448000
  0.491000, -0.712800
  0.493000, -0.970100
  0.495000, -1.218700
  0.497000, -1.456200
  0.499000, -1.685300
  0.501000, -1.903800
  0.503000, -2.110900
  0.505000, -2.310600
  0.507000, -2.503300
  0.509000, -2.688500
  0.511000, -2.866000
  0.513000, -3.035000
  0.515000, -3.194800
  0.517000, -3.346500
  0.519000, -3.491200
  0.521000, -3.628400
  0.523000, -3.758300
  0.525000, -3.882400
  0.527000, -3.999800
  0.529000, -4.109900
  0.531000, -4.213700
  0.533000, -4.311100
  0.535000, -4.403800
  0.537000, -4.492400
  0.539000, -4.573700
  0.541000, -4.649500
  0.543000, -4.720700
  0.545000, -4.788000
  0.547000, -4.851800
  0.549000, -4.911000
  0.551000, -4.966300
  0.553000, -5.017200
  0.555000, -5.066100
  0.557000, -5.113400
  0.559000, -5.156700
  0.561000, -5.196500
  0.563000, -5.233200
  0.565000, -5.266900
  0.567000, -5.298600
  0.569000, -5.328600
  0.571000, -5.357200
  0.573000, -5.383500
  0.575000, -5.407200
  0.577000, -5.429300
  0.579000, -5.448800
  0.581000, -5.465900
  0.583000, -5.481600
  0.585000, -5.495400
  0.587000, -5.507300
  0.589000, -5.516700
  0.591000, -5.523700
  0.593000, -5.528600
  0.595000, -5.531600
  0.597000, -5.532300
  0.599000, -5.530800
  0.601000, -5.526900
  0.603000, -5.521000
  0.605000, -5.513800
  0.607000, -5.504500
  0.609000, -5.492400
  0.611000, -5.478100
  0.613000, -5.461600
  0.615000, -5.442700
  0.617000, -5.422600
  0.619000, -5.400400
  0.621000, -5.376100
  0.623000, -5.350200
  0.625000, -5.322600
  0.627000, -5.293300
  0.629000, -5.262500
  0.631000, -5.230500
  0.633000, -5.196900
  0.635000, -5.161800
  0.637000, -5.125900
  0.639000, -5.089200
  0.641000, -5.051600
  0.643000, -5.013400
  0.645000, -4.974300
  0.647000, -4.934900
  0.649000, -4.895500
  0.651000, -4.856000
  0.653000, -4.816300
  0.655000, -4.776300
  0.657000, -4.736500
  0.659000, -4.696900
  0.661000, -4.657400
  0.663000, -4.618400
  0.665000, -4.579800
  0.667000, -4.541800
  0.669000, -4.504500
  0.671000, -4.467500
  0.673000, -4.432100
  0.675000, -4.397500
  0.677000, -4.362800
  0.679000, -4.329200
  0.681000, -4.296700
  0.683000, -4.264700
  0.685000, -4.233500
  0.687000, -4.203200
  0.689000, -4.173400
  0.691000, -4.144100
  0.693000, -4.116000
  0.695000, -4.088500
  0.697000, -4.061300
  0.699000, -4.034700
  0.701000, -4.008900
  0.703000, -3.983600
  0.705000, -3.958900
  0.707000, -3.934600
  0.709000, -3.910300
  0.711000, -3.886200
  0.713000, -3.862500
  0.715000, -3.839400
  0.717000, -3.816700
  0.719000, -3.794300
  0.721000, -3.772300
  0.723000, -3.750700
  0.725000, -3.729400
  0.727000, -3.708400
  0.729000, -3.687400
  0.731000, -3.666800
  0.733000, -3.646600
  0.735000, -3.626600
  0.737000, -3.607200
  0.739000, -3.588100
  0.741000, -3.569100
  0.743000, -3.550600
  0.745000, -3.532300
  0.747000, -3.514200
  0.749000, -3.496400
  0.751000, -3.479000
  0.753000, -3.461900
  0.755000, -3.445200
  0.757000, -3.428900
  0.759000, -3.413000
  0.761000, -3.397300
  0.763000, -3.382000
  0.765000, -3.367100
  0.767000, -3.352800
  0.769000, -3.338800
  0.771000, -3.325000
  0.773000, -3.311800
  0.775000, -3.298600
  0.777000, -3.285800
  0.779000, -3.273400
  0.781000, -3.261400
  0.783000, -3.249600
  0.785000, -3.238200
  0.787000, -3.226900
  0.789000, -3.216000
  0.791000, -3.205200
  0.793000, -3.194300
  0.795000, -3.183700
  0.797000, -3.173200
  0.799000, -3.162800
  0.801000, -3.152200
  0.803000, -3.141400
  0.805000, -3.130700
  0.807000, -3.119800
  0.809000, -3.108500
  0.811000, -3.097100
  0.813000, -3.085400
  0.815000, -3.073500
  0.817000, -3.061300
  0.819000, -3.048500
  0.821000, -3.035200
  0.823000, -3.021400
  0.825000, -3.007100
  0.827000, -2.992300
  0.829000, -2.976900
  0.831000, -2.960800
  0.833000, -2.944300
  0.835000, -2.926900
  0.837000, -2.909000
  0.839000, -2.890500
  0.841000, -2.871300
  0.843000, -2.851500
  0.845000, -2.831100
  0.847000, -2.809900
  0.849000, -2.787900
  0.851000, -2.765500
  0.853000, -2.742600
  0.855000, -2.719100
  0.857000, -2.694900
  0.859000, -2.670100
  0.861000, -2.644800
  0.863000, -2.619100
  0.865000, -2.593000
  0.867000, -2.566300
  0.869000, -2.539300
  0.871000, -2.511900
  0.873000, -2.484200
  0.875000, -2.456300
  0.877000, -2.428100
  0.879000, -2.399900
  0.881000, -2.371500
  0.883000, -2.343300
  0.885000, -2.315000
  0.887000, -2.286600
  0.889000, -2.258000
  0.891000, -2.229600
  0.893000, -2.201500
  0.895000, -2.173700
  0.897000, -2.146200
  0.899000, -2.118700
  0.901000, -2.091600
  0.903000, -2.064900
  0.905000, -2.038400
  0.907000, -2.012300
  0.909000, -1.986900
  0.911000, -1.962200
  0.913000, -1.937600
  0.915000, -1.913300
  0.917000, -1.889500
  0.919000, -1.866400
  0.921000, -1.844000
  0.923000, -1.822000
  0.925000, -1.800700
  0.927000, -1.779900
  0.929000, -1.759500
  0.931000, -1.739700
  0.933000, -1.720600
  0.935000, -1.702100
  0.937000, -1.684000
  0.939000, -1.666500
  0.941000, -1.649800
  0.943000, -1.633500
  0.945000, -1.617800
  0.947000, -1.602400
  0.949000, -1.587600
  0.951000, -1.573200
  0.953000, -1.559300
  0.955000, -1.545800
  0.957000, -1.532500
  0.959000, -1.519800
  0.961000, -1.507700
  0.963000, -1.495900
  0.965000, -1.484200
  0.967000, -1.472800
  0.969000, -1.461900
  0.971000, -1.451200
  0.973000, -1.440700
  0.975000, -1.430600
  0.977000, -1.420600
  0.979000, -1.410800
  0.981000, -1.401200
  0.983000, -1.391900
  0.985000, -1.382800
  0.987000, -1.373700
  0.989000, -1.364700
  0.991000, -1.355800
  0.993000, -1.346600
  0.995000, -1.337400
  0.997000, -1.328200
  0.999000, -1.318900
  1.001000, -1.309800
  1.003000, -1.300700
  1.005000, -1.291500
  1.007000, -1.282200
  1.009000, -1.273000
  1.011000, -1.263600
  1.013000, -1.254200
  1.015000, -1.244700
  1.017000, -1.235100
  1.019000, -1.225400
  1.021000, -1.215600
  1.023000, -1.205800
  1.025000, -1.195900
  1.027000, -1.185800
  1.029000, -1.175500
  1.031000, -1.165100
  1.033000, -1.154600
  1.035000, -1.144200
  1.037000, -1.133500
  1.039000, -1.122700
  1.041000, -1.111800
  1.043000, -1.100800
  1.045000, -1.089800
  1.047000, -1.078600
  1.049000, -1.067300
  1.051000, -1.055900
  1.053000, -1.044700
  1.055000, -1.033500
  1.057000, -1.021900
  1.059000, -1.010400
  1.061000, -0.999000
  1.063000, -0.987800
  1.065000, -0.976500
  1.067000, -0.965200
  1.069000, -0.954000
  1.071000, -0.942700
  1.073000, -0.931600
  1.075000, -0.920400
  1.077000, -0.909400
  1.079000, -0.898500
  1.081000, -0.887800
  1.083000, -0.877000
  1.085000, -0.866300
  1.087000, -0.855600
  1.089000, -0.845000
  1.091000, -0.834500
  1.093000, -0.824100
  1.095000, -0.813800
  1.097000, -0.803800
  1.099000, -0.793900
  1.101000, -0.784100
  1.103000, -0.774400
  1.105000, -0.764800
  1.107000, -0.755200
  1.109000, -0.745600
  1.111000, -0.736100
  1.113000, -0.726800
  1.115000, -0.717500
  1.117000, -0.708400
  1.119000, -0.699400
  1.121000, -0.690500
  1.123000, -0.681500
  1.125000, -0.672600
  1.127000, -0.663900
  1.129000, -0.655200
  1.131000, -0.646500
  1.133000, -0.637800
  1.135000, -0.629300
  1.137000, -0.620700
  1.139000, -0.612000
  1.141000, -0.603400
  1.143000, -0.595000
  1.145000, -0.586400
  1.147000, -0.577800
  1.149000, -0.569300
  1.151000, -0.560700
  1.153000, -0.552200
  1.155000, -0.543700
  1.157000, -0.535200
  1.159000, -0.526600
  1.161000, -0.518000
  1.163000, -0.509400
  1.165000, -0.500900
  1.167000, -0.492500
  1.169000, -0.484100
  1.171000, -0.475700
  1.173000, -0.467400
  1.175000, -0.459100
  1.177000, -0.450700
  1.179000, -0.442200
  1.181000, -0.433900
  1.183000, -0.425600
  1.185000, -0.417200
  1.187000, -0.408800
  1.189000, -0.400500
  1.191000, -0.392300
  1.193000, -0.384100
  1.195000, -0.375900
  1.197000, -0.367600
  1.199000, -0.359400
  1.201000, -0.351400
  1.203000, -0.343400
  1.205000, -0.335400
  1.207000, -0.327500
  1.209000, -0.319500
  1.211000, -0.311500
  1.213000, -0.303600
  1.215000, -0.295900
  1.217000, -0.288100
  1.219000, -0.280400
  1.221000, -0.272700
  1.223000, -0.265000
  1.225000, -0.257300
  1.227000, -0.249800
  1.229000, -0.242300
  1.231000, -0.234900
  1.233000, -0.227300
  1.235000, -0.219600
  1.237000, -0.212000
  1.239000, -0.204400
  1.241000, -0.196800
  1.243000, -0.189300
  1.245000, -0.181700
  1.247000, -0.174200
  1.249000, -0.166700
  1.251000, -0.159100
  1.253000, -0.151500
  1.255000, -0.143800
  1.257000, -0.136100
  1.259000, -0.128600
  1.261000, -0.121000
  1.263000, -0.113300
  1.265000, -0.105500
  1.267000, -0.097900
  1.269000, -0.090200
  1.271000, -0.082600
  1.273000, -0.074900
  1.275000, -0.067300
  1.277000, -0.059700
  1.279000, -0.052300
  1.281000, -0.044800
  1.283000, -0.037100
  1.285000, -0.029700
  1.287000, -0.022300
  1.289000, -0.015100
  1.291000, -0.008000
  1.293000, -0.001100
  1.295000,  0.005700
  1.297000,  0.012500
  1.299000,  0.019200
  1.301000,  0.025800
  1.303000,  0.032400
  1.305000,  0.038900
  1.307000,  0.045200
  1.309000,  0.051400
  1.311000,  0.057500
  1.313000,  0.063500
  1.315000,  0.069400
  1.317000,  0.075100
  1.319000,  0.080800
  1.321000,  0.086300
  1.323000,  0.091900
  1.325000,  0.097400
  1.327000,  0.102900
  1.329000,  0.108300
  1.331000,  0.113900
  1.333000,  0.119500
  1.335000,  0.125000
  1.337000,  0.130400
  1.339000,  0.135800
  1.341000,  0.141100
  1.343000,  0.146400
  1.345000,  0.151900
  1.347000,  0.157400
  1.349000,  0.162800
  1.351000,  0.168300
  1.353000,  0.173900
  1.355000,  0.179700
  1.357000,  0.185700
  1.359000,  0.191600
  1.361000,  0.197500
  1.363000,  0.203600
  1.365000,  0.209800
  1.367000,  0.216000
  1.369000,  0.222400
  1.371000,  0.228900
  1.373000,  0.235400
  1.375000,  0.242100
  1.377000,  0.248900
  1.379000,  0.255700
  1.381000,  0.262600
  1.383000,  0.269500
  1.385000,  0.276400
  1.387000,  0.283300
  1.389000,  0.289900
  1.391000,  0.296300
  1.393000,  0.302500
  1.395000,  0.308600
  1.397000,  0.314600
  1.399000,  0.320300
