# z (nm)   (kJ/mol)
  0.441000, 13.990100
  0.443000, 13.602100
  0.445000, 13.227400
  0.447000, 12.812200
  0.449000, 12.362200
  0.451000, 11.902600
  0.453000, 11.440800
  0.455000, 10.994600
  0.457000, 10.562000
  0.459000, 10.125400
  0.461000,  9.686400
  0.463000,  9.251900
  0.465000,  8.823200
  0.467000,  8.396900
  0.469000,  7.977800
  0.471000,  7.569200
  0.473000,  7.173100
  0.475000,  6.787900
  0.477000,  6.409800
  0.479000,  6.040100
  0.481000,  5.674500
  0.483000,  5.322600
  0.485000,  4.985200
  0.487000,  4.654500
  0.489000,  4.335200
  0.491000,  4.029800
  0.493000,  3.732300
  0.495000,  3.441300
  0.497000,  3.161300
  0.499000,  2.893000
  0.501000,  2.634600
  0.503000,  2.386500
  0.505000,  2.144100
  0.507000,  1.911300
  0.509000,  1.692500
  0.511000,  1.480700
  0.513000,  1.277300
  0.515000,  1.081600
  0.517000,  0.893000
  0.519000,  0.715200
  0.521000,  0.546300
  0.523000,  0.385200
  0.525000,  0.231000
  0.527000,  0.083600
  0.529000, -0.055500
  0.531000, -0.187500
  0.533000, -0.314000
  0.535000, -0.433200
  0.537000, -0.544700
  0.539000, -0.650400
  0.541000, -0.750400
  0.543000, -0.844300
  0.545000, -0.932800
  0.547000, -1.015500
  0.549000, -1.092600
  0.551000, -1.165900
  0.553000, -1.235500
  0.555000, -1.301100
  0.557000, -1.362700
  0.559000, -1.419600
  0.561000, -1.473900
  0.563000, -1.525000
  0.565000, -1.573500
  0.567000, -1.618500
  0.569000, -1.660700
  0.571000, -1.703300
  0.573000, -1.744900
  0.575000, -1.783600
  0.577000, -1.821000
  0.579000, -1.857500
  0.581000, -1.893100
  0.583000, -1.928500
  0.585000, -1.963700
  0.587000, -1.998600
  0.589000, -2.033400
  0.591000, -2.068700
  0.593000, -2.103900
  0.595000, -2.138800
  0.597000, -2.174100
  0.599000, -2.209400
  0.601000, -2.245200
  0.603000, -2.281200
  0.605000, -2.317200
  0.607000, -2.353800
  0.609000, -2.390400
  0.611000, -2.427100
  0.613000, -2.464000
  0.615000, -2.500900
  0.617000, -2.537700
  0.619000, -2.574000
  0.621000, -2.609800
  0.623000, -2.645300
  0.625000, -2.680500
  0.627000, -2.715300
  0.629000, -2.749200
  0.631000, -2.781900
  0.633000, -2.813800
  0.635000, -2.844600
  0.637000, -2.874500
  0.639000, -2.903200
  0.641000, -2.930500
  0.643000, -2.956600
  0.645000, -2.981100
  0.647000, -3.004000
  0.649000, -3.025200
  0.651000, -3.044600
  0.653000, -3.062200
  0.655000, -3.078400
  0.657000, -3.092900
  0.659000, -3.105800
  0.661000, -3.117000
  0.663000, -3.126500
  0.665000, -3.134400
  0.667000, -3.140600
  0.669000, -3.145200
  0.671000, -3.148300
  0.673000, -3.149900
  0.675000, -3.150000
  0.677000, -3.148800
  0.679000, -3.146300
  0.681000, -3.142900
  0.683000, -3.138100
  0.685000, -3.132100
  0.687000, -3.125300
  0.689000, -3.117500
  0.691000, -3.108900
  0.693000, -3.099900
  0.695000, -3.090400
  0.697000, -3.080300
  0.699000, -3.069700
  0.701000, -3.058900
  0.703000, -3.048000
  0.705000, -3.036900
  0.707000, -3.025500
  0.709000, -3.014200
  0.711000, -3.003000
  0.713000, -2.992000
  0.715000, -2.981500
  0.717000, -2.971400
  0.719000, -2.961800
  0.721000, -2.952700
  0.723000, -2.943900
  0.725000, -2.936100
  0.727000, -2.928700
  0.729000, -2.921300
  0.731000, -2.914900
  0.733000, -2.909200
  0.735000, -2.904000
  0.737000, -2.899300
  0.739000, -2.895400
  0.741000, -2.892100
  0.743000, -2.889500
  0.745000, -2.887400
  0.747000, -2.885900
  0.749000, -2.884500
  0.751000, -2.883700
  0.753000, -2.883300
  0.755000, -2.883200
  0.757000, -2.883400
  0.759000, -2.883600
  0.761000, -2.883800
  0.763000, -2.884100
  0.765000, -2.884800
  0.767000, -2.885200
  0.769000, -2.885600
  0.771000, -2.885700
  0.773000, -2.885300
  0.775000, -2.884700
  0.777000, -2.883700
  0.779000, -2.882300
  0.781000, -2.880400
  0.783000, -2.877900
  0.785000, -2.874600
  0.787000, -2.870300
  0.789000, -2.865200
  0.791000, -2.859600
  0.793000, -2.853100
  0.795000, -2.845800
  0.797000, -2.837500
  0.799000, -2.828200
  0.801000, -2.817900
  0.803000, -2.806500
  0.805000, -2.794200
  0.807000, -2.780900
  0.809000, -2.766400
  0.811000, -2.751000
  0.813000, -2.734500
  0.815000, -2.716900
  0.817000, -2.698400
  0.819000, -2.678900
  0.821000, -2.658400
  0.823000, -2.637200
  0.825000, -2.615000
  0.827000, -2.591900
  0.829000, -2.567900
  0.831000, -2.543200
  0.833000, -2.517900
  0.835000, -2.491800
  0.837000, -2.465100
  0.839000, -2.437800
  0.841000, -2.410000
  0.843000, -2.381800
  0.845000, -2.353000
  0.847000, -2.324000
  0.849000, -2.294800
  0.851000, -2.265500
  0.853000, -2.236000
  0.855000, -2.206300
  0.857000, -2.176700
  0.859000, -2.147200
  0.861000, -2.117800
  0.863000, -2.088400
  0.865000, -2.059400
  0.867000, -2.030500
  0.869000, -2.002100
  0.871000, -1.974200
  0.873000, -1.946600
  0.875000, -1.919600
  0.877000, -1.893300
  0.879000, -1.867600
  0.881000, -1.842400
  0.883000, -1.817800
  0.885000, -1.793800
  0.887000, -1.770500
  0.889000, -1.748000
  0.891000, -1.726300
  0.893000, -1.705600
  0.895000, -1.685600
  0.897000, -1.666300
  0.899000, -1.647900
  0.901000, -1.630300
  0.903000, -1.613500
  0.905000, -1.597500
  0.907000, -1.582400
  0.909000, -1.568000
  0.911000, -1.554400
  0.913000, -1.541600
  0.915000, -1.529500
  0.917000, -1.518200
  0.919000, -1.507700
  0.921000, -1.497900
  0.923000, -1.488600
  0.925000, -1.479900
  0.927000, -1.471900
  0.929000, -1.464300
  0.931000, -1.457200
  0.933000, -1.450700
  0.935000, -1.444700
  0.937000, -1.439100
  0.939000, -1.433900
  0.941000, -1.429100
  0.943000, -1.424500
  0.945000, -1.419900
  0.947000, -1.415600
  0.949000, -1.411500
  0.951000, -1.407500
  0.953000, -1.403600
  0.955000, -1.399800
  0.957000, -1.396200
  0.959000, -1.392800
  0.961000, -1.389200
  0.963000, -1.385600
  0.965000, -1.381700
  0.967000, -1.377500
  0.969000, -1.373400
  0.971000, -1.369200
  0.973000, -1.364500
  0.975000, -1.359700
  0.977000, -1.354600
  0.979000, -1.349100
  0.981000, -1.343600
  0.983000, -1.337700
  0.985000, -1.331500
  0.987000, -1.324800
  0.989000, -1.317800
  0.991000, -1.310500
  0.993000, -1.303000
  0.995000, -1.295100
  0.997000, -1.286900
  0.999000, -1.278300
  1.001000, -1.269300
  1.003000, -1.260100
  1.005000, -1.250500
  1.007000, -1.240600
  1.009000, -1.230400
  1.011000, -1.219900
  1.013000, -1.209100
  1.015000, -1.198000
  1.017000, -1.186700
  1.019000, -1.175200
  1.021000, -1.163400
  1.023000, -1.151400
  1.025000, -1.139300
  1.027000, -1.126900
  1.029000, -1.114400
  1.031000, -1.101700
  1.033000, -1.089000
  1.035000, -1.076100
  1.037000, -1.063000
  1.039000, -1.049800
  1.041000, -1.036600
  1.043000, -1.023300
  1.045000, -1.009900
  1.047000, -0.996400
  1.049000, -0.982800
  1.051000, -0.969300
  1.053000, -0.955700
  1.055000, -0.942100
  1.057000, -0.928700
  1.059000, -0.915300
  1.061000, -0.901900
  1.063000, -0.888600
  1.065000, -0.875300
  1.067000, -0.862000
  1.069000, -0.849000
  1.071000, -0.835900
  1.073000, -0.822900
  1.075000, -0.810100
  1.077000, -0.797400
  1.079000, -0.784700
  1.081000, -0.772100
  1.083000, -0.759800
  1.085000, -0.747700
  1.087000, -0.735600
  1.089000, -0.723500
  1.091000, -0.711400
  1.093000, -0.699500
  1.095000, -0.687800
  1.097000, -0.676300
  1.099000, -0.664800
  1.101000, -0.653500
  1.103000, -0.642400
  1.105000, -0.631500
  1.107000, -0.620800
  1.109000, -0.610100
  1.111000, -0.599700
  1.113000, -0.589600
  1.115000, -0.579500
  1.117000, -0.569700
  1.119000, -0.560100
  1.121000, -0.550600
  1.123000, -0.541100
  1.125000, -0.531900
  1.127000, -0.522800
  1.129000, -0.513800
  1.131000, -0.505000
  1.133000, -0.496300
  1.135000, -0.488000
  1.137000, -0.480000
  1.139000, -0.471900
  1.141000, -0.464000
  1.143000, -0.456300
  1.145000, -0.448800
  1.147000, -0.441400
  1.149000, -0.434200
  1.151000, -0.427300
  1.153000, -0.420500
  1.155000, -0.413700
  1.157000, -0.407100
  1.159000, -0.400600
  1.161000, -0.394100
  1.163000, -0.387700
  1.165000, -0.381600
  1.167000, -0.375600
  1.169000, -0.369600
  1.171000, -0.363700
  1.173000, -0.358000
  1.175000, -0.352300
  1.177000, -0.346800
  1.179000, -0.341500
  1.181000, -0.336200
  1.183000, -0.331000
  1.185000, -0.325800
  1.187000, -0.320700
  1.189000, -0.315600
  1.191000, -0.310700
  1.193000, -0.305600
  1.195000, -0.300600
  1.197000, -0.295700
  1.199000, -0.290900
  1.201000, -0.286000
  1.203000, -0.281300
  1.205000, -0.276500
  1.207000, -0.271700
  1.209000, -0.267100
  1.211000, -0.262600
  1.213000, -0.257900
  1.215000, -0.253000
  1.217000, -0.248200
  1.219000, -0.243200
  1.221000, -0.238300
  1.223000, -0.233300
  1.225000, -0.228400
  1.227000, -0.223500
  1.229000, -0.218500
  1.231000, -0.213300
  1.233000, -0.208200
  1.235000, -0.203000
  1.237000, -0.197700
  1.239000, -0.192300
  1.241000, -0.186800
  1.243000, -0.181300
  1.245000, -0.175700
  1.247000, -0.170000
  1.249000, -0.164100
  1.251000, -0.158200
  1.253000, -0.152100
  1.255000, -0.146000
  1.257000, -0.140000
  1.259000, -0.133800
  1.261000, -0.127500
  1.263000, -0.121100
  1.265000, -0.114700
  1.267000, -0.108300
  1.269000, -0.101700
  1.271000, -0.095100
  1.273000, -0.088600
  1.275000, -0.081900
  1.277000, -0.075300
  1.279000, -0.068700
  1.281000, -0.062000
  1.283000, -0.055300
  1.285000, -0.048700
  1.287000, -0.042200
  1.289000, -0.035700
  1.291000, -0.029100
  1.293000, -0.022500
  1.295000, -0.015900
  1.297000, -0.009400
  1.299000, -0.002900
  1.301000,  0.003600
  1.303000,  0.010100
  1.305000,  0.016300
  1.307000,  0.022500
  1.309000,  0.028600
  1.311000,  0.034700
  1.313000,  0.040900
  1.315000,  0.046900
  1.317000,  0.052800
  1.319000,  0.058900
  1.321000,  0.064800
  1.323000,  0.070700
  1.325000,  0.076500
  1.327000,  0.082300
  1.329000,  0.088100
  1.331000,  0.093900
  1.333000,  0.099900
  1.335000,  0.105900
  1.337000,  0.111900
  1.339000,  0.117900
  1.341000,  0.124100
  1.343000,  0.130400
  1.345000,  0.136600
  1.347000,  0.142800
  1.349000,  0.149200
  1.351000,  0.155600
  1.353000,  0.162400
  1.355000,  0.169200
  1.357000,  0.176100
  1.359000,  0.183200
  1.361000,  0.190500
  1.363000,  0.197800
  1.365000,  0.205200
  1.367000,  0.212500
  1.369000,  0.220200
  1.371000,  0.228000
  1.373000,  0.235800
  1.375000,  0.243600
  1.377000,  0.251600
  1.379000,  0.259500
  1.381000,  0.267600
  1.383000,  0.275900
  1.385000,  0.284100
  1.387000,  0.292200
  1.389000,  0.300100
  1.391000,  0.307700
  1.393000,  0.315200
  1.395000,  0.322500
  1.397000,  0.329500
  1.399000,  0.336100
