# z (nm)   (kJ/mol)
  0.399000, 14.038600
  0.401000, 13.561700
  0.403000, 13.091500
  0.405000, 12.613600
  0.407000, 12.162700
  0.409000, 11.696700
  0.411000, 11.207300
  0.413000, 10.720100
  0.415000, 10.232900
  0.417000,  9.732300
  0.419000,  9.235300
  0.421000,  8.742500
  0.423000,  8.252100
  0.425000,  7.764600
  0.427000,  7.281700
  0.429000,  6.795300
  0.431000,  6.310000
  0.433000,  5.836400
  0.435000,  5.375500
  0.437000,  4.926100
  0.439000,  4.488200
  0.441000,  4.061800
  0.443000,  3.650600
  0.445000,  3.256100
  0.447000,  2.871100
  0.449000,  2.498200
  0.451000,  2.141900
  0.453000,  1.800700
  0.455000,  1.475300
  0.457000,  1.165800
  0.459000,  0.871200
  0.461000,  0.595400
  0.463000,  0.337000
  0.465000,  0.092600
  0.467000, -0.134200
  0.469000, -0.343700
  0.471000, -0.537400
  0.473000, -0.714400
  0.475000, -0.874200
  0.477000, -1.017300
  0.479000, -1.144200
  0.481000, -1.255900
  0.483000, -1.353100
  0.485000, -1.434000
  0.487000, -1.499300
  0.489000, -1.551400
  0.491000, -1.590000
  0.493000, -1.615400
  0.495000, -1.627900
  0.497000, -1.627900
  0.499000, -1.616500
  0.501000, -1.594200
  0.503000, -1.560700
  0.505000, -1.517000
  0.507000, -1.465000
  0.509000, -1.406400
  0.511000, -1.341000
  0.513000, -1.268900
  0.515000, -1.189700
  0.517000, -1.105800
  0.519000, -1.020000
  0.521000, -0.930800
  0.523000, -0.838600
  0.525000, -0.746100
  0.527000, -0.653800
  0.529000, -0.562300
  0.531000, -0.471900
  0.533000, -0.383500
  0.535000, -0.297900
  0.537000, -0.215600
  0.539000, -0.136500
  0.541000, -0.061700
  0.543000,  0.007800
  0.545000,  0.072200
  0.547000,  0.130300
  0.549000,  0.183500
  0.551000,  0.231300
  0.553000,  0.271800
  0.555000,  0.305200
  0.557000,  0.332500
  0.559000,  0.355200
  0.561000,  0.372500
  0.563000,  0.383100
  0.565000,  0.387800
  0.567000,  0.387300
  0.569000,  0.382000
  0.571000,  0.371500
  0.573000,  0.355800
  0.575000,  0.335700
  0.577000,  0.311000
  0.579000,  0.282100
  0.581000,  0.249700
  0.583000,  0.212800
  0.585000,  0.172300
  0.587000,  0.130300
  0.589000,  0.084900
  0.591000,  0.037100
  0.593000, -0.010900
  0.595000, -0.060300
  0.597000, -0.112000
  0.599000, -0.164600
  0.601000, -0.217300
  0.603000, -0.270500
  0.605000, -0.323200
  0.607000, -0.375800
  0.609000, -0.427800
  0.611000, -0.479000
  0.613000, -0.528500
  0.615000, -0.577500
  0.617000, -0.626300
  0.619000, -0.673500
  0.621000, -0.718700
  0.623000, -0.761900
  0.625000, -0.803400
  0.627000, -0.842900
  0.629000, -0.880700
  0.631000, -0.916700
  0.633000, -0.950000
  0.635000, -0.981000
  0.637000, -1.010100
  0.639000, -1.036800
  0.641000, -1.061400
  0.643000, -1.083400
  0.645000, -1.102700
  0.647000, -1.120100
  0.649000, -1.135600
  0.651000, -1.148800
  0.653000, -1.159900
  0.655000, -1.169100
  0.657000, -1.176200
  0.659000, -1.181200
  0.661000, -1.183900
  0.663000, -1.184600
  0.665000, -1.183600
  0.667000, -1.181000
  0.669000, -1.176600
  0.671000, -1.170900
  0.673000, -1.164000
  0.675000, -1.155800
  0.677000, -1.146400
  0.679000, -1.135500
  0.681000, -1.123500
  0.683000, -1.110800
  0.685000, -1.097200
  0.687000, -1.082400
  0.689000, -1.066800
  0.691000, -1.050300
  0.693000, -1.032900
  0.695000, -1.015200
  0.697000, -0.997200
  0.699000, -0.978800
  0.701000, -0.959900
  0.703000, -0.940600
  0.705000, -0.921400
  0.707000, -0.902100
  0.709000, -0.882500
  0.711000, -0.863000
  0.713000, -0.843600
  0.715000, -0.824300
  0.717000, -0.805200
  0.719000, -0.786100
  0.721000, -0.767200
  0.723000, -0.748800
  0.725000, -0.730700
  0.727000, -0.713000
  0.729000, -0.695500
  0.731000, -0.678600
  0.733000, -0.662200
  0.735000, -0.646200
  0.737000, -0.630700
  0.739000, -0.615600
  0.741000, -0.601200
  0.743000, -0.587300
  0.745000, -0.574100
  0.747000, -0.561500
  0.749000, -0.549500
  0.751000, -0.538100
  0.753000, -0.527400
  0.755000, -0.517300
  0.757000, -0.507700
  0.759000, -0.498800
  0.761000, -0.490600
  0.763000, -0.483000
  0.765000, -0.475900
  0.767000, -0.469500
  0.769000, -0.463700
  0.771000, -0.458600
  0.773000, -0.454100
  0.775000, -0.450200
  0.777000, -0.446800
  0.779000, -0.443900
  0.781000, -0.441600
  0.783000, -0.439900
  0.785000, -0.438800
  0.787000, -0.438100
  0.789000, -0.438000
  0.791000, -0.438200
  0.793000, -0.438800
  0.795000, -0.439800
  0.797000, -0.441200
  0.799000, -0.443100
  0.801000, -0.445400
  0.803000, -0.448000
  0.805000, -0.450800
  0.807000, -0.453900
  0.809000, -0.457100
  0.811000, -0.460600
  0.813000, -0.464500
  0.815000, -0.468500
  0.817000, -0.472800
  0.819000, -0.476900
  0.821000, -0.481100
  0.823000, -0.485300
  0.825000, -0.489600
  0.827000, -0.493900
  0.829000, -0.498000
  0.831000, -0.502000
  0.833000, -0.505900
  0.835000, -0.509700
  0.837000, -0.513400
  0.839000, -0.516800
  0.841000, -0.520000
  0.843000, -0.523100
  0.845000, -0.526000
  0.847000, -0.528700
  0.849000, -0.531000
  0.851000, -0.532900
  0.853000, -0.534500
  0.855000, -0.535900
  0.857000, -0.536900
  0.859000, -0.537600
  0.861000, -0.537900
  0.863000, -0.537900
  0.865000, -0.537400
  0.867000, -0.536500
  0.869000, -0.535100
  0.871000, -0.533400
  0.873000, -0.531400
  0.875000, -0.528900
  0.877000, -0.525900
  0.879000, -0.522700
  0.881000, -0.518900
  0.883000, -0.514800
  0.885000, -0.510400
  0.887000, -0.505700
  0.889000, -0.500500
  0.891000, -0.495000
  0.893000, -0.489100
  0.895000, -0.482800
  0.897000, -0.476300
  0.899000, -0.469600
  0.901000, -0.462500
  0.903000, -0.455100
  0.905000, -0.447500
  0.907000, -0.439500
  0.909000, -0.431400
  0.911000, -0.423100
  0.913000, -0.414600
  0.915000, -0.406200
  0.917000, -0.397500
  0.919000, -0.388500
  0.921000, -0.379500
  0.923000, -0.370400
  0.925000, -0.361200
  0.927000, -0.351900
  0.929000, -0.342600
  0.931000, -0.333200
  0.933000, -0.323800
  0.935000, -0.314300
  0.937000, -0.304900
  0.939000, -0.295600
  0.941000, -0.286400
  0.943000, -0.277300
  0.945000, -0.268300
  0.947000, -0.259300
  0.949000, -0.250400
  0.951000, -0.241600
  0.953000, -0.233100
  0.955000, -0.224800
  0.957000, -0.216800
  0.959000, -0.208800
  0.961000, -0.201200
  0.963000, -0.194000
  0.965000, -0.186900
  0.967000, -0.180100
  0.969000, -0.173600
  0.971000, -0.167300
  0.973000, -0.161500
  0.975000, -0.156000
  0.977000, -0.150900
  0.979000, -0.146100
  0.981000, -0.141700
  0.983000, -0.137600
  0.985000, -0.133900
  0.987000, -0.130500
  0.989000, -0.127500
  0.991000, -0.125000
  0.993000, -0.122900
  0.995000, -0.121200
  0.997000, -0.119900
  0.999000, -0.118900
  1.001000, -0.118300
  1.003000, -0.118100
  1.005000, -0.118300
  1.007000, -0.118800
  1.009000, -0.119800
  1.011000, -0.121000
  1.013000, -0.122500
  1.015000, -0.124400
  1.017000, -0.126500
  1.019000, -0.128800
  1.021000, -0.131300
  1.023000, -0.134200
  1.025000, -0.137300
  1.027000, -0.140400
  1.029000, -0.143800
  1.031000, -0.147300
  1.033000, -0.150900
  1.035000, -0.154600
  1.037000, -0.158300
  1.039000, -0.161900
  1.041000, -0.165600
  1.043000, -0.169300
  1.045000, -0.172900
  1.047000, -0.176400
  1.049000, -0.179800
  1.051000, -0.183200
  1.053000, -0.186400
  1.055000, -0.189500
  1.057000, -0.192400
  1.059000, -0.195300
  1.061000, -0.197900
  1.063000, -0.200400
  1.065000, -0.202700
  1.067000, -0.204700
  1.069000, -0.206500
  1.071000, -0.208100
  1.073000, -0.209500
  1.075000, -0.210600
  1.077000, -0.211600
  1.079000, -0.212300
  1.081000, -0.212900
  1.083000, -0.213300
  1.085000, -0.213500
  1.087000, -0.213600
  1.089000, -0.213500
  1.091000, -0.213100
  1.093000, -0.212600
  1.095000, -0.211900
  1.097000, -0.211200
  1.099000, -0.210400
  1.101000, -0.209400
  1.103000, -0.208300
  1.105000, -0.207200
  1.107000, -0.205800
  1.109000, -0.204300
  1.111000, -0.202900
  1.113000, -0.201400
  1.115000, -0.199800
  1.117000, -0.198100
  1.119000, -0.196300
  1.121000, -0.194400
  1.123000, -0.192400
  1.125000, -0.190400
  1.127000, -0.188400
  1.129000, -0.186300
  1.131000, -0.184100
  1.133000, -0.181800
  1.135000, -0.179300
  1.137000, -0.176900
  1.139000, -0.174300
  1.141000, -0.171700
  1.143000, -0.168900
  1.145000, -0.166100
  1.147000, -0.163100
  1.149000, -0.159900
  1.151000, -0.156700
  1.153000, -0.153500
  1.155000, -0.150000
  1.157000, -0.146500
  1.159000, -0.142900
  1.161000, -0.139200
  1.163000, -0.135300
  1.165000, -0.131300
  1.167000, -0.127300
  1.169000, -0.123000
  1.171000, -0.118700
  1.173000, -0.114200
  1.175000, -0.109700
  1.177000, -0.105200
  1.179000, -0.100600
  1.181000, -0.095900
  1.183000, -0.091100
  1.185000, -0.086200
  1.187000, -0.081300
  1.189000, -0.076500
  1.191000, -0.071600
  1.193000, -0.066700
  1.195000, -0.061900
  1.197000, -0.057100
  1.199000, -0.052400
  1.201000, -0.047800
  1.203000, -0.043300
  1.205000, -0.038900
  1.207000, -0.034800
  1.209000, -0.030700
  1.211000, -0.026800
  1.213000, -0.023100
  1.215000, -0.019500
  1.217000, -0.016200
  1.219000, -0.013100
  1.221000, -0.010200
  1.223000, -0.007600
  1.225000, -0.005400
  1.227000, -0.003400
  1.229000, -0.001600
  1.231000, -0.000100
  1.233000,  0.001100
  1.235000,  0.002000
  1.237000,  0.002500
  1.239000,  0.002900
  1.241000,  0.002900
  1.243000,  0.002800
  1.245000,  0.002400
  1.247000,  0.001900
  1.249000,  0.001100
  1.251000,  0.000200
  1.253000, -0.000900
  1.255000, -0.002400
  1.257000, -0.004000
  1.259000, -0.005800
  1.261000, -0.007700
  1.263000, -0.009600
  1.265000, -0.011600
  1.267000, -0.013700
  1.269000, -0.016000
  1.271000, -0.018300
  1.273000, -0.020500
  1.275000, -0.022700
  1.277000, -0.024900
  1.279000, -0.027000
  1.281000, -0.029100
  1.283000, -0.031100
  1.285000, -0.033000
  1.287000, -0.034800
  1.289000, -0.036500
  1.291000, -0.038100
  1.293000, -0.039400
  1.295000, -0.040600
  1.297000, -0.041600
  1.299000, -0.042400
  1.301000, -0.043000
  1.303000, -0.043300
  1.305000, -0.043500
  1.307000, -0.043400
  1.309000, -0.043200
  1.311000, -0.042600
  1.313000, -0.041900
  1.315000, -0.040900
  1.317000, -0.039800
  1.319000, -0.038400
  1.321000, -0.036800
  1.323000, -0.035000
  1.325000, -0.032900
  1.327000, -0.030500
  1.329000, -0.028100
  1.331000, -0.025300
  1.333000, -0.022400
  1.335000, -0.019300
  1.337000, -0.016000
  1.339000, -0.012700
  1.341000, -0.009300
  1.343000, -0.005600
  1.345000, -0.001900
  1.347000,  0.002000
  1.349000,  0.006100
  1.351000,  0.010400
  1.353000,  0.014800
  1.355000,  0.019100
  1.357000,  0.023500
  1.359000,  0.028100
  1.361000,  0.032800
  1.363000,  0.037300
  1.365000,  0.041900
  1.367000,  0.046500
  1.369000,  0.051300
  1.371000,  0.056100
  1.373000,  0.060700
  1.375000,  0.065400
  1.377000,  0.070400
  1.379000,  0.075200
  1.381000,  0.079800
  1.383000,  0.084500
  1.385000,  0.089300
  1.387000,  0.093900
  1.389000,  0.098200
  1.391000,  0.102100
  1.393000,  0.106000
  1.395000,  0.109600
  1.397000,  0.112800
  1.399000,  0.115700
