# z (nm)   (kJ/mol)
  0.443000, 20.804700
  0.445000, 20.457300
  0.447000, 20.089500
  0.449000, 19.725200
  0.451000, 19.360100
  0.453000, 18.979300
  0.455000, 18.611900
  0.457000, 18.231200
  0.459000, 17.845800
  0.461000, 17.467200
  0.463000, 17.090800
  0.465000, 16.703200
  0.467000, 16.305400
  0.469000, 15.912000
  0.471000, 15.523800
  0.473000, 15.135500
  0.475000, 14.750400
  0.477000, 14.367200
  0.479000, 13.985400
  0.481000, 13.610900
  0.483000, 13.238900
  0.485000, 12.870300
  0.487000, 12.513400
  0.489000, 12.163400
  0.491000, 11.811100
  0.493000, 11.461500
  0.495000, 11.118200
  0.497000, 10.779200
  0.499000, 10.444800
  0.501000, 10.119700
  0.503000,  9.806900
  0.505000,  9.498600
  0.507000,  9.195000
  0.509000,  8.901600
  0.511000,  8.615800
  0.513000,  8.337900
  0.515000,  8.070500
  0.517000,  7.808400
  0.519000,  7.550300
  0.521000,  7.299000
  0.523000,  7.053600
  0.525000,  6.817000
  0.527000,  6.587000
  0.529000,  6.362900
  0.531000,  6.145900
  0.533000,  5.934900
  0.535000,  5.731700
  0.537000,  5.534400
  0.539000,  5.344500
  0.541000,  5.160300
  0.543000,  4.978600
  0.545000,  4.801500
  0.547000,  4.630900
  0.549000,  4.466300
  0.551000,  4.308000
  0.553000,  4.154800
  0.555000,  4.005300
  0.557000,  3.859700
  0.559000,  3.717200
  0.561000,  3.579000
  0.563000,  3.445400
  0.565000,  3.316200
  0.567000,  3.192200
  0.569000,  3.072500
  0.571000,  2.955700
  0.573000,  2.842100
  0.575000,  2.732500
  0.577000,  2.626900
  0.579000,  2.524000
  0.581000,  2.423900
  0.583000,  2.327200
  0.585000,  2.233900
  0.587000,  2.144000
  0.589000,  2.056700
  0.591000,  1.971800
  0.593000,  1.889100
  0.595000,  1.809300
  0.597000,  1.732400
  0.599000,  1.657500
  0.601000,  1.585200
  0.603000,  1.515200
  0.605000,  1.446900
  0.607000,  1.380200
  0.609000,  1.315400
  0.611000,  1.252600
  0.613000,  1.192000
  0.615000,  1.133200
  0.617000,  1.076000
  0.619000,  1.020300
  0.621000,  0.966300
  0.623000,  0.914000
  0.625000,  0.862800
  0.627000,  0.813000
  0.629000,  0.764400
  0.631000,  0.717000
  0.633000,  0.671300
  0.635000,  0.626700
  0.637000,  0.583300
  0.639000,  0.541000
  0.641000,  0.500000
  0.643000,  0.460500
  0.645000,  0.422000
  0.647000,  0.384500
  0.649000,  0.348000
  0.651000,  0.312300
  0.653000,  0.277800
  0.655000,  0.244200
  0.657000,  0.211400
  0.659000,  0.179700
  0.661000,  0.148800
  0.663000,  0.118800
  0.665000,  0.089500
  0.667000,  0.061000
  0.669000,  0.033000
  0.671000,  0.005800
  0.673000, -0.020500
  0.675000, -0.046000
  0.677000, -0.070700
  0.679000, -0.095000
  0.681000, -0.118400
  0.683000, -0.141200
  0.685000, -0.163400
  0.687000, -0.184900
  0.689000, -0.205500
  0.691000, -0.225600
  0.693000, -0.245100
  0.695000, -0.264000
  0.697000, -0.282200
  0.699000, -0.299800
  0.701000, -0.316600
  0.703000, -0.333000
  0.705000, -0.348800
  0.707000, -0.363700
  0.709000, -0.377900
  0.711000, -0.391500
  0.713000, -0.404500
  0.715000, -0.417000
  0.717000, -0.428700
  0.719000, -0.439500
  0.721000, -0.449800
  0.723000, -0.459600
  0.725000, -0.468600
  0.727000, -0.476900
  0.729000, -0.484500
  0.731000, -0.491300
  0.733000, -0.497600
  0.735000, -0.503100
  0.737000, -0.507800
  0.739000, -0.511600
  0.741000, -0.514900
  0.743000, -0.517500
  0.745000, -0.519200
  0.747000, -0.520100
  0.749000, -0.520600
  0.751000, -0.520500
  0.753000, -0.519600
  0.755000, -0.517900
  0.757000, -0.516100
  0.759000, -0.513700
  0.761000, -0.510400
  0.763000, -0.506600
  0.765000, -0.502500
  0.767000, -0.498400
  0.769000, -0.493700
  0.771000, -0.488300
  0.773000, -0.482400
  0.775000, -0.476300
  0.777000, -0.469900
  0.779000, -0.463300
  0.781000, -0.456800
  0.783000, -0.449900
  0.785000, -0.442600
  0.787000, -0.435200
  0.789000, -0.427500
  0.791000, -0.419700
  0.793000, -0.411900
  0.795000, -0.404300
  0.797000, -0.396800
  0.799000, -0.389500
  0.801000, -0.382400
  0.803000, -0.375400
  0.805000, -0.368400
  0.807000, -0.361600
  0.809000, -0.355000
  0.811000, -0.349000
  0.813000, -0.343200
  0.815000, -0.337700
  0.817000, -0.332600
  0.819000, -0.327600
  0.821000, -0.323000
  0.823000, -0.318700
  0.825000, -0.314700
  0.827000, -0.311100
  0.829000, -0.307900
  0.831000, -0.305000
  0.833000, -0.302400
  0.835000, -0.300300
  0.837000, -0.298200
  0.839000, -0.296500
  0.841000, -0.295300
  0.843000, -0.294200
  0.845000, -0.293500
  0.847000, -0.293000
  0.849000, -0.292900
  0.851000, -0.293200
  0.853000, -0.293700
  0.855000, -0.294300
  0.857000, -0.294800
  0.859000, -0.295500
  0.861000, -0.296600
  0.863000, -0.297700
  0.865000, -0.298700
  0.867000, -0.299800
  0.869000, -0.301000
  0.871000, -0.302200
  0.873000, -0.303200
  0.875000, -0.304200
  0.877000, -0.305200
  0.879000, -0.306100
  0.881000, -0.306800
  0.883000, -0.307200
  0.885000, -0.307500
  0.887000, -0.307600
  0.889000, -0.307500
  0.891000, -0.307200
  0.893000, -0.306700
  0.895000, -0.306000
  0.897000, -0.305100
  0.899000, -0.303900
  0.901000, -0.302600
  0.903000, -0.300800
  0.905000, -0.298500
  0.907000, -0.295800
  0.909000, -0.293100
  0.911000, -0.290100
  0.913000, -0.286600
  0.915000, -0.282800
  0.917000, -0.278800
  0.919000, -0.274300
  0.921000, -0.269500
  0.923000, -0.264400
  0.925000, -0.259100
  0.927000, -0.253600
  0.929000, -0.247900
  0.931000, -0.242000
  0.933000, -0.235600
  0.935000, -0.228900
  0.937000, -0.222200
  0.939000, -0.215400
  0.941000, -0.208300
  0.943000, -0.201000
  0.945000, -0.193700
  0.947000, -0.186400
  0.949000, -0.179000
  0.951000, -0.171600
  0.953000, -0.164100
  0.955000, -0.156600
  0.957000, -0.149300
  0.959000, -0.141900
  0.961000, -0.134600
  0.963000, -0.127400
  0.965000, -0.120400
  0.967000, -0.113400
  0.969000, -0.106600
  0.971000, -0.099900
  0.973000, -0.093500
  0.975000, -0.087400
  0.977000, -0.081500
  0.979000, -0.075800
  0.981000, -0.070300
  0.983000, -0.065100
  0.985000, -0.060100
  0.987000, -0.055500
  0.989000, -0.051200
  0.991000, -0.047000
  0.993000, -0.043400
  0.995000, -0.040100
  0.997000, -0.037000
  0.999000, -0.034200
  1.001000, -0.031600
  1.003000, -0.029400
  1.005000, -0.027600
  1.007000, -0.026200
  1.009000, -0.024900
  1.011000, -0.023800
  1.013000, -0.023200
  1.015000, -0.022700
  1.017000, -0.022400
  1.019000, -0.022300
  1.021000, -0.022600
  1.023000, -0.023200
  1.025000, -0.024000
  1.027000, -0.025000
  1.029000, -0.026100
  1.031000, -0.027300
  1.033000, -0.028700
  1.035000, -0.030400
  1.037000, -0.032000
  1.039000, -0.033500
  1.041000, -0.035000
  1.043000, -0.036600
  1.045000, -0.038200
  1.047000, -0.039900
  1.049000, -0.041600
  1.051000, -0.043100
  1.053000, -0.044700
  1.055000, -0.046200
  1.057000, -0.047600
  1.059000, -0.048900
  1.061000, -0.050000
  1.063000, -0.051000
  1.065000, -0.051900
  1.067000, -0.052600
  1.069000, -0.053100
  1.071000, -0.053500
  1.073000, -0.053800
  1.075000, -0.054000
  1.077000, -0.053700
  1.079000, -0.053300
  1.081000, -0.052800
  1.083000, -0.052200
  1.085000, -0.051400
  1.087000, -0.050400
  1.089000, -0.049200
  1.091000, -0.047900
  1.093000, -0.046500
  1.095000, -0.045000
  1.097000, -0.043300
  1.099000, -0.041500
  1.101000, -0.039500
  1.103000, -0.037300
  1.105000, -0.035000
  1.107000, -0.032600
  1.109000, -0.030100
  1.111000, -0.027600
  1.113000, -0.025000
  1.115000, -0.022300
  1.117000, -0.019500
  1.119000, -0.016800
  1.121000, -0.014200
  1.123000, -0.011500
  1.125000, -0.008900
  1.127000, -0.006200
  1.129000, -0.003800
  1.131000, -0.001300
  1.133000,  0.001200
  1.135000,  0.003600
  1.137000,  0.005800
  1.139000,  0.008000
  1.141000,  0.010100
  1.143000,  0.012100
  1.145000,  0.013900
  1.147000,  0.015700
  1.149000,  0.017300
  1.151000,  0.018700
  1.153000,  0.020000
  1.155000,  0.021100
  1.157000,  0.022100
  1.159000,  0.022900
  1.161000,  0.023600
  1.163000,  0.024200
  1.165000,  0.024800
  1.167000,  0.025100
  1.169000,  0.025300
  1.171000,  0.025400
  1.173000,  0.025300
  1.175000,  0.024900
  1.177000,  0.024400
  1.179000,  0.023800
  1.181000,  0.023000
  1.183000,  0.022000
  1.185000,  0.021000
  1.187000,  0.019900
  1.189000,  0.018800
  1.191000,  0.017600
  1.193000,  0.016200
  1.195000,  0.014700
  1.197000,  0.013200
  1.199000,  0.011600
  1.201000,  0.010100
  1.203000,  0.008400
  1.205000,  0.006700
  1.207000,  0.005100
  1.209000,  0.003400
  1.211000,  0.001600
  1.213000, -0.000100
  1.215000, -0.001700
  1.217000, -0.003300
  1.219000, -0.005000
  1.221000, -0.006500
  1.223000, -0.007900
  1.225000, -0.009300
  1.227000, -0.010700
  1.229000, -0.012100
  1.231000, -0.013400
  1.233000, -0.014700
  1.235000, -0.015800
  1.237000, -0.016900
  1.239000, -0.017800
  1.241000, -0.018500
  1.243000, -0.019300
  1.245000, -0.020100
  1.247000, -0.020700
  1.249000, -0.021100
  1.251000, -0.021600
  1.253000, -0.022000
  1.255000, -0.022400
  1.257000, -0.022800
  1.259000, -0.023100
  1.261000, -0.023200
  1.263000, -0.023200
  1.265000, -0.023200
  1.267000, -0.023100
  1.269000, -0.023000
  1.271000, -0.022700
  1.273000, -0.022500
  1.275000, -0.022400
  1.277000, -0.022100
  1.279000, -0.021600
  1.281000, -0.021100
  1.283000, -0.020800
  1.285000, -0.020500
  1.287000, -0.020100
  1.289000, -0.019600
  1.291000, -0.019100
  1.293000, -0.018500
  1.295000, -0.017900
  1.297000, -0.017300
  1.299000, -0.016800
  1.301000, -0.016300
  1.303000, -0.015800
  1.305000, -0.015200
  1.307000, -0.014700
  1.309000, -0.014100
  1.311000, -0.013500
  1.313000, -0.013100
  1.315000, -0.012500
  1.317000, -0.011800
  1.319000, -0.011200
  1.321000, -0.010600
  1.323000, -0.010000
  1.325000, -0.009400
  1.327000, -0.008700
  1.329000, -0.008000
  1.331000, -0.007300
  1.333000, -0.006400
  1.335000, -0.005500
  1.337000, -0.004500
  1.339000, -0.003400
  1.341000, -0.002100
  1.343000, -0.000700
  1.345000,  0.000700
  1.347000,  0.002000
  1.349000,  0.003400
  1.351000,  0.005000
  1.353000,  0.006800
  1.355000,  0.008900
  1.357000,  0.010900
  1.359000,  0.013200
  1.361000,  0.015600
  1.363000,  0.018300
  1.365000,  0.021100
  1.367000,  0.024300
  1.369000,  0.027300
  1.371000,  0.030400
  1.373000,  0.033700
  1.375000,  0.036800
  1.377000,  0.040300
  1.379000,  0.044000
  1.381000,  0.047400
  1.383000,  0.051200
  1.385000,  0.054900
  1.387000,  0.058400
  1.389000,  0.062100
  1.391000,  0.065800
  1.393000,  0.069300
  1.395000,  0.072700
  1.397000,  0.076100
  1.399000,  0.079300
