# z (nm)   (kJ/mol)
  0.0840  275.01082
  0.0860  272.43993
  0.0880  268.18522
  0.0900  265.30039
  0.0920  262.58741
  0.0940  259.68993
  0.0960  256.98463
  0.0980  254.19217
  0.1000  251.41171
  0.1020  248.59590
  0.1040  245.70845
  0.1060  242.74352
  0.1080  239.69306
  0.1100  236.54965
  0.1120  233.28774
  0.1140  229.90658
  0.1160  226.39967
  0.1180  222.76033
  0.1200  218.99495
  0.1220  215.10362
  0.1240  211.09044
  0.1260  206.95872
  0.1280  202.72108
  0.1300  198.38141
  0.1320  193.96215
  0.1340  189.48230
  0.1360  184.96866
  0.1380  180.46932
  0.1400  176.00933
  0.1420  171.63267
  0.1440  167.36198
  0.1460  163.20779
  0.1480  159.17011
  0.1500  155.24395
  0.1520  151.41708
  0.1540  147.68424
  0.1560  144.03024
  0.1580  140.44058
  0.1600  136.90240
  0.1620  133.41103
  0.1640  129.95987
  0.1660  126.54515
  0.1680  123.16396
  0.1700  119.82281
  0.1720  116.52734
  0.1740  113.27399
  0.1760  110.05730
  0.1780  106.86988
  0.1800  103.71107
  0.1820  100.56780
  0.1840   97.43984
  0.1860   94.32932
  0.1880   91.24227
  0.1900   88.18165
  0.1920   85.16129
  0.1940   82.19804
  0.1960   79.29851
  0.1980   76.47303
  0.2000   73.72175
  0.2020   71.03484
  0.2040   68.39765
  0.2060   65.80810
  0.2080   63.25337
  0.2100   60.72903
  0.2120   58.24759
  0.2140   55.81094
  0.2160   53.43948
  0.2180   51.14526
  0.2200   48.92636
  0.2220   46.78255
  0.2240   44.69498
  0.2260   42.65033
  0.2280   40.63492
  0.2300   38.63318
  0.2320   36.65240
  0.2340   34.69407
  0.2360   32.78627
  0.2380   30.94579
  0.2400   29.18108
  0.2420   27.49441
  0.2440   25.87150
  0.2460   24.29188
  0.2480   22.73160
  0.2500   21.17447
  0.2520   19.63931
  0.2540   18.12419
  0.2560   16.64256
  0.2580   15.20950
  0.2600   13.82870
  0.2620   12.49504
  0.2640   11.20577
  0.2660    9.95732
  0.2680    8.75034
  0.2700    7.58002
  0.2720    6.44925
  0.2740    5.38077
  0.2760    4.38506
  0.2780    3.45029
  0.2800    2.58086
  0.2820    1.75454
  0.2840    0.95723
  0.2860    0.18067
  0.2880   -0.57765
  0.2900   -1.32060
  0.2920   -2.04059
  0.2940   -2.73404
  0.2960   -3.40567
  0.2980   -4.03690
  0.3000   -4.61974
  0.3020   -5.15595
  0.3040   -5.65550
  0.3060   -6.11116
  0.3080   -6.53126
  0.3100   -6.92781
  0.3120   -7.30471
  0.3140   -7.66883
  0.3160   -8.01432
  0.3180   -8.33010
  0.3200   -8.63183
  0.3220   -8.90611
  0.3240   -9.16088
  0.3260   -9.38751
  0.3280   -9.59760
  0.3300   -9.79082
  0.3320   -9.97351
  0.3340  -10.14492
  0.3360  -10.30164
  0.3380  -10.45235
  0.3400  -10.58184
  0.3420  -10.69185
  0.3440  -10.77810
  0.3460  -10.84280
  0.3480  -10.88621
  0.3500  -10.90658
  0.3520  -10.91626
  0.3540  -10.91422
  0.3560  -10.90062
  0.3580  -10.88091
  0.3600  -10.86114
  0.3620  -10.83738
  0.3640  -10.80622
  0.3660  -10.77500
  0.3680  -10.73493
  0.3700  -10.67575
  0.3720  -10.60769
  0.3740  -10.52332
  0.3760  -10.42857
  0.3780  -10.30496
  0.3800  -10.18498
  0.3820  -10.04878
  0.3840   -9.90512
  0.3860   -9.77106
  0.3880   -9.64150
  0.3900   -9.52456
  0.3920   -9.42090
  0.3940   -9.32990
  0.3960   -9.24269
  0.3980   -9.15760
  0.4000   -9.06203
  0.4020   -8.96396
  0.4040   -8.85461
  0.4060   -8.73700
  0.4080   -8.59922
  0.4100   -8.45990
  0.4120   -8.30736
  0.4140   -8.15576
  0.4160   -8.01218
  0.4180   -7.86917
  0.4200   -7.73723
  0.4220   -7.62030
  0.4240   -7.51458
  0.4260   -7.42408
  0.4280   -7.32918
  0.4300   -7.25820
  0.4320   -7.18572
  0.4340   -7.11269
  0.4360   -7.03894
  0.4380   -6.95433
  0.4400   -6.85789
  0.4420   -6.74333
  0.4440   -6.61557
  0.4460   -6.48366
  0.4480   -6.35005
  0.4500   -6.22509
  0.4520   -6.12178
  0.4540   -6.03509
  0.4560   -5.96127
  0.4580   -5.89706
  0.4600   -5.83533
  0.4620   -5.76510
  0.4640   -5.67295
  0.4660   -5.56526
  0.4680   -5.43776
  0.4700   -5.29841
  0.4720   -5.15753
  0.4740   -5.01742
  0.4760   -4.89485
  0.4780   -4.79697
  0.4800   -4.71336
  0.4820   -4.64240
  0.4840   -4.57985
  0.4860   -4.50989
  0.4880   -4.43048
  0.4900   -4.33631
  0.4920   -4.23076
  0.4940   -4.10052
  0.4960   -3.96313
  0.4980   -3.82180
  0.5000   -3.69248
  0.5020   -3.56611
  0.5040   -3.46554
  0.5060   -3.38575
  0.5080   -3.32010
  0.5100   -3.26139
  0.5120   -3.20927
  0.5140   -3.14056
  0.5160   -3.05747
  0.5180   -2.95572
  0.5200   -2.84091
  0.5220   -2.70371
  0.5240   -2.56753
  0.5260   -2.43008
  0.5280   -2.29886
  0.5300   -2.17984
  0.5320   -2.06139
  0.5340   -1.96016
  0.5360   -1.86378
  0.5380   -1.77164
  0.5400   -1.67312
  0.5420   -1.57485
  0.5440   -1.46556
  0.5460   -1.34529
  0.5480   -1.21483
  0.5500   -1.07735
  0.5520   -0.93912
  0.5540   -0.79538
  0.5560   -0.65210
  0.5580   -0.51976
  0.5600   -0.38847
  0.5620   -0.25978
  0.5640   -0.13496
  0.5660   -0.01126
  0.5680    0.10793
  0.5700    0.22279
  0.5720    0.34035
  0.5740    0.46178
  0.5760    0.57561
  0.5780    0.68408
  0.5800    0.78964
  0.5820    0.89561
  0.5840    0.99193
  0.5860    1.08187
  0.5880    1.15760
  0.5900    1.22942
  0.5920    1.29172
  0.5940    1.34424
  0.5960    1.38945
  0.5980    1.42161
  0.6000    1.45370
  0.6020    1.47412
  0.6040    1.48635
  0.6060    1.49280
  0.6080    1.48141
  0.6100    1.46847
  0.6120    1.44559
  0.6140    1.41546
  0.6160    1.37724
  0.6180    1.32973
  0.6200    1.27789
  0.6220    1.22701
  0.6240    1.17242
  0.6260    1.12101
  0.6280    1.06211
  0.6300    1.00924
  0.6320    0.95787
  0.6340    0.91277
  0.6360    0.86574
  0.6380    0.81958
  0.6400    0.78201
  0.6420    0.73854
  0.6440    0.69097
  0.6460    0.62768
  0.6480    0.55923
  0.6500    0.48360
  0.6520    0.39352
  0.6540    0.29364
  0.6560    0.19758
  0.6580    0.09702
  0.6600    0.01583
  0.6620   -0.05040
  0.6640   -0.09664
  0.6660   -0.12486
  0.6680   -0.13159
  0.6700   -0.12935
  0.6720   -0.13029
  0.6740   -0.14342
  0.6760   -0.16546
  0.6780   -0.20475
  0.6800   -0.25672
  0.6820   -0.32492
  0.6840   -0.39565
  0.6860   -0.45875
  0.6880   -0.52692
  0.6900   -0.58839
  0.6920   -0.63874
  0.6940   -0.68750
  0.6960   -0.72793
  0.6980   -0.76226
  0.7000   -0.78287
  0.7020   -0.80613
  0.7040   -0.81455
  0.7060   -0.81960
  0.7080   -0.80820
  0.7100   -0.79471
  0.7120   -0.77745
  0.7140   -0.75346
  0.7160   -0.73707
  0.7180   -0.72409
  0.7200   -0.72142
  0.7220   -0.72511
  0.7240   -0.73829
  0.7260   -0.75935
  0.7280   -0.77989
  0.7300   -0.80178
  0.7320   -0.82286
  0.7340   -0.84045
  0.7360   -0.84958
  0.7380   -0.84895
  0.7400   -0.84349
  0.7420   -0.83201
  0.7440   -0.81663
  0.7460   -0.79398
  0.7480   -0.77250
  0.7500   -0.75119
  0.7520   -0.73041
  0.7540   -0.72127
  0.7560   -0.71051
  0.7580   -0.70826
  0.7600   -0.70576
  0.7620   -0.70722
  0.7640   -0.70936
  0.7660   -0.70574
  0.7680   -0.69551
  0.7700   -0.68112
  0.7720   -0.65826
  0.7740   -0.62522
  0.7760   -0.58604
  0.7780   -0.53730
  0.7800   -0.48911
  0.7820   -0.44325
  0.7840   -0.39922
  0.7860   -0.36368
  0.7880   -0.33808
  0.7900   -0.31976
  0.7920   -0.30259
  0.7940   -0.29615
  0.7960   -0.28904
  0.7980   -0.28523
  0.8000   -0.28020
  0.8020   -0.27839
  0.8040   -0.26945
  0.8060   -0.25726
  0.8080   -0.24242
  0.8100   -0.22872
  0.8120   -0.21486
  0.8140   -0.19821
  0.8160   -0.18404
  0.8180   -0.16665
  0.8200   -0.14749
  0.8220   -0.12559
  0.8240   -0.09953
  0.8260   -0.07598
  0.8280   -0.05643
  0.8300   -0.03051
  0.8320   -0.01622
  0.8340   -0.00983
  0.8360   -0.01007
  0.8380   -0.01151
  0.8400   -0.01239
  0.8420   -0.01302
  0.8440   -0.00830
  0.8460    0.00569
  0.8480    0.01777
  0.8500    0.03402
  0.8520    0.04891
  0.8540    0.07264
  0.8560    0.09984
  0.8580    0.12814
  0.8600    0.15756
  0.8620    0.18616
  0.8640    0.21312
  0.8660    0.23445
  0.8680    0.25563
  0.8700    0.26782
  0.8720    0.27495
  0.8740    0.26230
  0.8760    0.24797
  0.8780    0.22802
  0.8800    0.19924
  0.8820    0.16140
  0.8840    0.12742
  0.8860    0.10171
  0.8880    0.07737
  0.8900    0.06924
  0.8920    0.06941
  0.8940    0.07890
  0.8960    0.10123
  0.8980    0.12513
  0.9000    0.15511
  0.9020    0.17733
  0.9040    0.20303
  0.9060    0.21941
  0.9080    0.23829
  0.9100    0.25057
  0.9120    0.26065
  0.9140    0.26592
  0.9160    0.26028
  0.9180    0.25757
  0.9200    0.24827
  0.9220    0.23402
  0.9240    0.21406
  0.9260    0.19202
  0.9280    0.16327
  0.9300    0.13703
  0.9320    0.11429
  0.9340    0.10245
  0.9360    0.08986
  0.9380    0.07671
  0.9400    0.06625
  0.9420    0.05267
  0.9440    0.05641
  0.9460    0.05373
  0.9480    0.04634
  0.9500    0.03120
  0.9520    0.02110
  0.9540    0.00769
  0.9560   -0.00619
  0.9580   -0.02569
  0.9600   -0.05098
  0.9620   -0.07448
  0.9640   -0.10252
  0.9660   -0.13246
  0.9680   -0.15873
  0.9700   -0.17874
  0.9720   -0.19610
  0.9740   -0.20984
  0.9760   -0.22256
  0.9780   -0.22567
  0.9800   -0.22820
  0.9820   -0.22789
  0.9840   -0.22700
  0.9860   -0.22714
  0.9880   -0.22536
  0.9900   -0.22737
  0.9920   -0.22241
  0.9940   -0.21949
  0.9960   -0.22148
  0.9980   -0.21870
  1.0000   -0.21145
