# z (nm)   (kJ/mol)
  0.0860  273.14552
  0.0880  270.10590
  0.0900  267.38322
  0.0920  264.72618
  0.0940  262.06669
  0.0960  259.48496
  0.0980  256.92760
  0.1000  254.33637
  0.1020  251.71948
  0.1040  249.03170
  0.1060  246.29756
  0.1080  243.49160
  0.1100  240.60402
  0.1120  237.62792
  0.1140  234.54650
  0.1160  231.35439
  0.1180  228.04059
  0.1200  224.60432
  0.1220  221.04708
  0.1240  217.35689
  0.1260  213.55245
  0.1280  209.64362
  0.1300  205.63581
  0.1320  201.55082
  0.1340  197.40837
  0.1360  193.23158
  0.1380  189.05170
  0.1400  184.89669
  0.1420  180.79890
  0.1440  176.78658
  0.1460  172.87835
  0.1480  169.09057
  0.1500  165.42930
  0.1520  161.89937
  0.1540  158.48190
  0.1560  155.17122
  0.1580  151.93477
  0.1600  148.75862
  0.1620  145.62098
  0.1640  142.51613
  0.1660  139.42762
  0.1680  136.35590
  0.1700  133.29200
  0.1720  130.23952
  0.1740  127.19879
  0.1760  124.17587
  0.1780  121.18337
  0.1800  118.23219
  0.1820  115.35166
  0.1840  112.57129
  0.1860  109.90032
  0.1880  107.33528
  0.1900  104.84116
  0.1920  102.36872
  0.1940   99.87046
  0.1960   97.32848
  0.1980   94.74661
  0.2000   92.14554
  0.2020   89.55976
  0.2040   87.02448
  0.2060   84.56547
  0.2080   82.20298
  0.2100   79.93832
  0.2120   77.76695
  0.2140   75.66785
  0.2160   73.63305
  0.2180   71.63274
  0.2200   69.64899
  0.2220   67.66772
  0.2240   65.69264
  0.2260   63.72157
  0.2280   61.76453
  0.2300   59.82550
  0.2320   57.92427
  0.2340   56.06384
  0.2360   54.25147
  0.2380   52.48069
  0.2400   50.75813
  0.2420   49.08617
  0.2440   47.45554
  0.2460   45.86558
  0.2480   44.31139
  0.2500   42.79857
  0.2520   41.32250
  0.2540   39.87136
  0.2560   38.45368
  0.2580   37.07292
  0.2600   35.71981
  0.2620   34.39859
  0.2640   33.11485
  0.2660   31.86764
  0.2680   30.65444
  0.2700   29.48700
  0.2720   28.36636
  0.2740   27.29042
  0.2760   26.24277
  0.2780   25.23237
  0.2800   24.25454
  0.2820   23.29836
  0.2840   22.36777
  0.2860   21.45981
  0.2880   20.57950
  0.2900   19.71887
  0.2920   18.88564
  0.2940   18.07885
  0.2960   17.30518
  0.2980   16.55692
  0.3000   15.83616
  0.3020   15.15062
  0.3040   14.48985
  0.3060   13.85428
  0.3080   13.24324
  0.3100   12.65920
  0.3120   12.09621
  0.3140   11.55989
  0.3160   11.03830
  0.3180   10.54180
  0.3200   10.06131
  0.3220    9.60171
  0.3240    9.15899
  0.3260    8.73186
  0.3280    8.32486
  0.3300    7.92872
  0.3320    7.54493
  0.3340    7.17886
  0.3360    6.83248
  0.3380    6.49493
  0.3400    6.17475
  0.3420    5.86565
  0.3440    5.56855
  0.3460    5.28938
  0.3480    5.01415
  0.3500    4.75582
  0.3520    4.51932
  0.3540    4.27253
  0.3560    4.04183
  0.3580    3.81754
  0.3600    3.59136
  0.3620    3.36590
  0.3640    3.12499
  0.3660    2.87351
  0.3680    2.61563
  0.3700    2.33970
  0.3720    2.05421
  0.3740    1.75699
  0.3760    1.45675
  0.3780    1.16073
  0.3800    0.85454
  0.3820    0.55846
  0.3840    0.26371
  0.3860   -0.02230
  0.3880   -0.30162
  0.3900   -0.58665
  0.3920   -0.86969
  0.3940   -1.14300
  0.3960   -1.41260
  0.3980   -1.67515
  0.4000   -1.92808
  0.4020   -2.17027
  0.4040   -2.39891
  0.4060   -2.61863
  0.4080   -2.82944
  0.4100   -3.02264
  0.4120   -3.20563
  0.4140   -3.37781
  0.4160   -3.52969
  0.4180   -3.67078
  0.4200   -3.79487
  0.4220   -3.89179
  0.4240   -3.97649
  0.4260   -4.04683
  0.4280   -4.09967
  0.4300   -4.13183
  0.4320   -4.16087
  0.4340   -4.18009
  0.4360   -4.18868
  0.4380   -4.19458
  0.4400   -4.19357
  0.4420   -4.18021
  0.4440   -4.15758
  0.4460   -4.11878
  0.4480   -4.07786
  0.4500   -4.01734
  0.4520   -3.94292
  0.4540   -3.85095
  0.4560   -3.75026
  0.4580   -3.63771
  0.4600   -3.51340
  0.4620   -3.38485
  0.4640   -3.25099
  0.4660   -3.11669
  0.4680   -2.97902
  0.4700   -2.84251
  0.4720   -2.69274
  0.4740   -2.54601
  0.4760   -2.39784
  0.4780   -2.24101
  0.4800   -2.08992
  0.4820   -1.94009
  0.4840   -1.79333
  0.4860   -1.64923
  0.4880   -1.50293
  0.4900   -1.35896
  0.4920   -1.22076
  0.4940   -1.08228
  0.4960   -0.95099
  0.4980   -0.81853
  0.5000   -0.69360
  0.5020   -0.57541
  0.5040   -0.46066
  0.5060   -0.35452
  0.5080   -0.25480
  0.5100   -0.15826
  0.5120   -0.07283
  0.5140    0.00613
  0.5160    0.07899
  0.5180    0.14414
  0.5200    0.20247
  0.5220    0.24942
  0.5240    0.28973
  0.5260    0.31560
  0.5280    0.32825
  0.5300    0.32522
  0.5320    0.30341
  0.5340    0.27566
  0.5360    0.24037
  0.5380    0.21111
  0.5400    0.17435
  0.5420    0.13904
  0.5440    0.12009
  0.5460    0.10021
  0.5480    0.07373
  0.5500    0.05067
  0.5520    0.02519
  0.5540    0.00447
  0.5560   -0.02533
  0.5580   -0.05803
  0.5600   -0.09909
  0.5620   -0.14209
  0.5640   -0.18830
  0.5660   -0.23432
  0.5680   -0.28888
  0.5700   -0.33576
  0.5720   -0.38474
  0.5740   -0.42776
  0.5760   -0.46058
  0.5780   -0.49260
  0.5800   -0.50691
  0.5820   -0.51630
  0.5840   -0.52861
  0.5860   -0.54048
  0.5880   -0.55559
  0.5900   -0.57423
  0.5920   -0.59381
  0.5940   -0.62109
  0.5960   -0.65217
  0.5980   -0.68559
  0.6000   -0.71810
  0.6020   -0.74402
  0.6040   -0.76724
  0.6060   -0.78364
  0.6080   -0.77988
  0.6100   -0.77370
  0.6120   -0.76762
  0.6140   -0.75421
  0.6160   -0.73706
  0.6180   -0.71685
  0.6200   -0.70118
  0.6220   -0.68114
  0.6240   -0.66727
  0.6260   -0.66253
  0.6280   -0.65221
  0.6300   -0.64634
  0.6320   -0.64512
  0.6340   -0.63016
  0.6360   -0.62026
  0.6380   -0.61206
  0.6400   -0.59620
  0.6420   -0.58750
  0.6440   -0.58286
  0.6460   -0.57589
  0.6480   -0.56574
  0.6500   -0.56100
  0.6520   -0.55388
  0.6540   -0.54829
  0.6560   -0.54080
  0.6580   -0.53716
  0.6600   -0.53047
  0.6620   -0.52291
  0.6640   -0.51266
  0.6660   -0.50149
  0.6680   -0.49455
  0.6700   -0.48169
  0.6720   -0.48146
  0.6740   -0.46926
  0.6760   -0.45293
  0.6780   -0.44578
  0.6800   -0.44111
  0.6820   -0.42691
  0.6840   -0.41169
  0.6860   -0.39747
  0.6880   -0.38631
  0.6900   -0.37921
  0.6920   -0.36304
  0.6940   -0.34118
  0.6960   -0.31855
  0.6980   -0.30224
  0.7000   -0.28869
  0.7020   -0.27233
  0.7040   -0.26415
  0.7060   -0.26137
  0.7080   -0.26469
  0.7100   -0.27939
  0.7120   -0.29745
  0.7140   -0.32051
  0.7160   -0.34730
  0.7180   -0.36113
  0.7200   -0.37361
  0.7220   -0.38493
  0.7240   -0.39435
  0.7260   -0.40071
  0.7280   -0.40511
  0.7300   -0.40684
  0.7320   -0.40264
  0.7340   -0.40065
  0.7360   -0.39842
  0.7380   -0.39715
  0.7400   -0.39698
  0.7420   -0.39665
  0.7440   -0.39378
  0.7460   -0.40152
  0.7480   -0.41037
  0.7500   -0.41552
  0.7520   -0.42923
  0.7540   -0.44448
  0.7560   -0.45978
  0.7580   -0.47831
  0.7600   -0.49511
  0.7620   -0.51239
  0.7640   -0.52876
  0.7660   -0.54590
  0.7680   -0.56157
  0.7700   -0.57163
  0.7720   -0.57185
  0.7740   -0.57467
  0.7760   -0.56842
  0.7780   -0.56234
  0.7800   -0.55313
  0.7820   -0.54122
  0.7840   -0.53238
  0.7860   -0.51410
  0.7880   -0.50981
  0.7900   -0.50093
  0.7920   -0.50158
  0.7940   -0.50026
  0.7960   -0.49939
  0.7980   -0.49486
  0.8000   -0.48690
  0.8020   -0.47396
  0.8040   -0.45552
  0.8060   -0.44171
  0.8080   -0.41713
  0.8100   -0.38850
  0.8120   -0.36309
  0.8140   -0.33805
  0.8160   -0.31720
  0.8180   -0.29385
  0.8200   -0.27908
  0.8220   -0.27146
  0.8240   -0.26163
  0.8260   -0.25203
  0.8280   -0.24028
  0.8300   -0.23390
  0.8320   -0.22128
  0.8340   -0.20711
  0.8360   -0.18281
  0.8380   -0.15414
  0.8400   -0.12224
  0.8420   -0.08437
  0.8440   -0.05013
  0.8460   -0.01572
  0.8480    0.00817
  0.8500    0.02445
  0.8520    0.02754
  0.8540    0.02175
  0.8560    0.00752
  0.8580   -0.02194
  0.8600   -0.05222
  0.8620   -0.08777
  0.8640   -0.11682
  0.8660   -0.14205
  0.8680   -0.15707
  0.8700   -0.15894
  0.8720   -0.15952
  0.8740   -0.15232
  0.8760   -0.13429
  0.8780   -0.11916
  0.8800   -0.10648
  0.8820   -0.09199
  0.8840   -0.07726
  0.8860   -0.06273
  0.8880   -0.05446
  0.8900   -0.04843
  0.8920   -0.04274
  0.8940   -0.04309
  0.8960   -0.03903
  0.8980   -0.03654
  0.9000   -0.03283
  0.9020   -0.03279
  0.9040   -0.03201
  0.9060   -0.02679
  0.9080   -0.02792
  0.9100   -0.02104
  0.9120   -0.01773
  0.9140   -0.01360
  0.9160   -0.00247
  0.9180    0.00963
  0.9200    0.02604
  0.9220    0.04003
  0.9240    0.04682
  0.9260    0.05578
  0.9280    0.05910
  0.9300    0.06581
  0.9320    0.06587
  0.9340    0.06163
  0.9360    0.05608
  0.9380    0.04471
  0.9400    0.03057
  0.9420    0.01776
  0.9440    0.00324
  0.9460   -0.00707
  0.9480   -0.02156
  0.9500   -0.02911
  0.9520   -0.03162
  0.9540   -0.02556
  0.9560   -0.01415
  0.9580    0.00924
  0.9600    0.02120
  0.9620    0.04112
  0.9640    0.05906
  0.9660    0.07222
  0.9680    0.08276
  0.9700    0.08247
  0.9720    0.07714
  0.9740    0.06176
  0.9760    0.03974
  0.9780    0.01832
  0.9800   -0.01441
  0.9820   -0.04542
  0.9840   -0.07418
  0.9860   -0.09707
  0.9880   -0.10603
  0.9900   -0.10846
  0.9920   -0.10371
  0.9940   -0.09613
  0.9960   -0.08128
  0.9980   -0.06576
  1.0000   -0.05221
