# z (nm)   (kJ/mol)
  0.255000, 17.842800
  0.259000, 17.333500
  0.263000, 16.765000
  0.265000, 16.444900
  0.267000, 16.130900
  0.269000, 15.792300
  0.271000, 15.426300
  0.273000, 15.077600
  0.275000, 14.741000
  0.277000, 14.385300
  0.279000, 14.016300
  0.281000, 13.658400
  0.283000, 13.296000
  0.285000, 12.899100
  0.287000, 12.508100
  0.289000, 12.113400
  0.291000, 11.715500
  0.293000, 11.315000
  0.295000, 10.894500
  0.297000, 10.464600
  0.299000, 10.035500
  0.301000,  9.609600
  0.303000,  9.180100
  0.305000,  8.749300
  0.307000,  8.319000
  0.309000,  7.885200
  0.311000,  7.453500
  0.313000,  7.019700
  0.315000,  6.584900
  0.317000,  6.158700
  0.319000,  5.731600
  0.321000,  5.306100
  0.323000,  4.887800
  0.325000,  4.470900
  0.327000,  4.053700
  0.329000,  3.642000
  0.331000,  3.237800
  0.333000,  2.839600
  0.335000,  2.446700
  0.337000,  2.057000
  0.339000,  1.673600
  0.341000,  1.293700
  0.343000,  0.917100
  0.345000,  0.550000
  0.347000,  0.189300
  0.349000, -0.165200
  0.351000, -0.517100
  0.353000, -0.865600
  0.355000, -1.204900
  0.357000, -1.539100
  0.359000, -1.870100
  0.361000, -2.193900
  0.363000, -2.511300
  0.365000, -2.822200
  0.367000, -3.126200
  0.369000, -3.426100
  0.371000, -3.717500
  0.373000, -4.002600
  0.375000, -4.282800
  0.377000, -4.555000
  0.379000, -4.820400
  0.381000, -5.078700
  0.383000, -5.329000
  0.385000, -5.572300
  0.387000, -5.808400
  0.389000, -6.036700
  0.391000, -6.257200
  0.393000, -6.470600
  0.395000, -6.676600
  0.397000, -6.874800
  0.399000, -7.065100
  0.401000, -7.247200
  0.403000, -7.421000
  0.405000, -7.587200
  0.407000, -7.745800
  0.409000, -7.896700
  0.411000, -8.038800
  0.413000, -8.173100
  0.415000, -8.299900
  0.417000, -8.417800
  0.419000, -8.527900
  0.421000, -8.630000
  0.423000, -8.724200
  0.425000, -8.811700
  0.427000, -8.891500
  0.429000, -8.963200
  0.431000, -9.026700
  0.433000, -9.082000
  0.435000, -9.130000
  0.437000, -9.170700
  0.439000, -9.204200
  0.441000, -9.230800
  0.443000, -9.250500
  0.445000, -9.263600
  0.447000, -9.269900
  0.449000, -9.269500
  0.451000, -9.262500
  0.453000, -9.248800
  0.455000, -9.228500
  0.457000, -9.202000
  0.459000, -9.169500
  0.461000, -9.131500
  0.463000, -9.087500
  0.465000, -9.037700
  0.467000, -8.982600
  0.469000, -8.922200
  0.471000, -8.856400
  0.473000, -8.785500
  0.475000, -8.709300
  0.477000, -8.628200
  0.479000, -8.542700
  0.481000, -8.452100
  0.483000, -8.357100
  0.485000, -8.258300
  0.487000, -8.155400
  0.489000, -8.048300
  0.491000, -7.937400
  0.493000, -7.822700
  0.495000, -7.704300
  0.497000, -7.582400
  0.499000, -7.457400
  0.501000, -7.329100
  0.503000, -7.197800
  0.505000, -7.063600
  0.507000, -6.926600
  0.509000, -6.787200
  0.511000, -6.645500
  0.513000, -6.501800
  0.515000, -6.356000
  0.517000, -6.208200
  0.519000, -6.059000
  0.521000, -5.908800
  0.523000, -5.757500
  0.525000, -5.604900
  0.527000, -5.451000
  0.529000, -5.296700
  0.531000, -5.142500
  0.533000, -4.987800
  0.535000, -4.833600
  0.537000, -4.680000
  0.539000, -4.526300
  0.541000, -4.373000
  0.543000, -4.220600
  0.545000, -4.070000
  0.547000, -3.921000
  0.549000, -3.774200
  0.551000, -3.629600
  0.553000, -3.486700
  0.555000, -3.345600
  0.557000, -3.206700
  0.559000, -3.071200
  0.561000, -2.939100
  0.563000, -2.810500
  0.565000, -2.685500
  0.567000, -2.564500
  0.569000, -2.448100
  0.571000, -2.335900
  0.573000, -2.227300
  0.575000, -2.123000
  0.577000, -2.023200
  0.579000, -1.928200
  0.581000, -1.838200
  0.583000, -1.753300
  0.585000, -1.674100
  0.587000, -1.599800
  0.589000, -1.530300
  0.591000, -1.466200
  0.593000, -1.407300
  0.595000, -1.354200
  0.597000, -1.307000
  0.599000, -1.264100
  0.601000, -1.225700
  0.603000, -1.192700
  0.605000, -1.164500
  0.607000, -1.140800
  0.609000, -1.121600
  0.611000, -1.106800
  0.613000, -1.096400
  0.615000, -1.089800
  0.617000, -1.086800
  0.619000, -1.087600
  0.621000, -1.092100
  0.623000, -1.099700
  0.625000, -1.110400
  0.627000, -1.123700
  0.629000, -1.139600
  0.631000, -1.157600
  0.633000, -1.177600
  0.635000, -1.199500
  0.637000, -1.222700
  0.639000, -1.247100
  0.641000, -1.272600
  0.643000, -1.298400
  0.645000, -1.324800
  0.647000, -1.351500
  0.649000, -1.378000
  0.651000, -1.404600
  0.653000, -1.431100
  0.655000, -1.456600
  0.657000, -1.481500
  0.659000, -1.505800
  0.661000, -1.529100
  0.663000, -1.551200
  0.665000, -1.571800
  0.667000, -1.591000
  0.669000, -1.608700
  0.671000, -1.624700
  0.673000, -1.639200
  0.675000, -1.651800
  0.677000, -1.662700
  0.679000, -1.671800
  0.681000, -1.679000
  0.683000, -1.684200
  0.685000, -1.687600
  0.687000, -1.689200
  0.689000, -1.689100
  0.691000, -1.687200
  0.693000, -1.683400
  0.695000, -1.677900
  0.697000, -1.670800
  0.699000, -1.662200
  0.701000, -1.652000
  0.703000, -1.640300
  0.705000, -1.627100
  0.707000, -1.612600
  0.709000, -1.596900
  0.711000, -1.580100
  0.713000, -1.562300
  0.715000, -1.543300
  0.717000, -1.523400
  0.719000, -1.502800
  0.721000, -1.481500
  0.723000, -1.459800
  0.725000, -1.437500
  0.727000, -1.414700
  0.729000, -1.391200
  0.731000, -1.367400
  0.733000, -1.343400
  0.735000, -1.319300
  0.737000, -1.295300
  0.739000, -1.271100
  0.741000, -1.246800
  0.743000, -1.222400
  0.745000, -1.198200
  0.747000, -1.174400
  0.749000, -1.150700
  0.751000, -1.127100
  0.753000, -1.103800
  0.755000, -1.081100
  0.757000, -1.058500
  0.759000, -1.035900
  0.761000, -1.013800
  0.763000, -0.992100
  0.765000, -0.970700
  0.767000, -0.949600
  0.769000, -0.929000
  0.771000, -0.909100
  0.773000, -0.889600
  0.775000, -0.870200
  0.777000, -0.851000
  0.779000, -0.832300
  0.781000, -0.813600
  0.783000, -0.795500
  0.785000, -0.777700
  0.787000, -0.760100
  0.789000, -0.742800
  0.791000, -0.725700
  0.793000, -0.709100
  0.795000, -0.692500
  0.797000, -0.676100
  0.799000, -0.660400
  0.801000, -0.645100
  0.803000, -0.629800
  0.805000, -0.614700
  0.807000, -0.599900
  0.809000, -0.585300
  0.811000, -0.571000
  0.813000, -0.557100
  0.815000, -0.543500
  0.817000, -0.530100
  0.819000, -0.516700
  0.821000, -0.503500
  0.823000, -0.490600
  0.825000, -0.478100
  0.827000, -0.466000
  0.829000, -0.454000
  0.831000, -0.442000
  0.833000, -0.430500
  0.835000, -0.419300
  0.837000, -0.408100
  0.839000, -0.397100
  0.841000, -0.386600
  0.843000, -0.376400
  0.845000, -0.366600
  0.847000, -0.357000
  0.849000, -0.347800
  0.851000, -0.338600
  0.853000, -0.329700
  0.855000, -0.321200
  0.857000, -0.312900
  0.859000, -0.304800
  0.861000, -0.297100
  0.863000, -0.289700
  0.865000, -0.282600
  0.867000, -0.275800
  0.869000, -0.269100
  0.871000, -0.262700
  0.873000, -0.256700
  0.875000, -0.250900
  0.877000, -0.245400
  0.879000, -0.240300
  0.881000, -0.235400
  0.883000, -0.230700
  0.885000, -0.226200
  0.887000, -0.222100
  0.889000, -0.218200
  0.891000, -0.214400
  0.893000, -0.210900
  0.895000, -0.207600
  0.897000, -0.204500
  0.899000, -0.201600
  0.901000, -0.198900
  0.903000, -0.196500
  0.905000, -0.194200
  0.907000, -0.192100
  0.909000, -0.190100
  0.911000, -0.188400
  0.913000, -0.186800
  0.915000, -0.185200
  0.917000, -0.183900
  0.919000, -0.182600
  0.921000, -0.181600
  0.923000, -0.180600
  0.925000, -0.179600
  0.927000, -0.178900
  0.929000, -0.178300
  0.931000, -0.177900
  0.933000, -0.177600
  0.935000, -0.177400
  0.937000, -0.177200
  0.939000, -0.177100
  0.941000, -0.177100
  0.943000, -0.177200
  0.945000, -0.177400
  0.947000, -0.177800
  0.949000, -0.178300
  0.951000, -0.178800
  0.953000, -0.179500
  0.955000, -0.180400
  0.957000, -0.181200
  0.959000, -0.182100
  0.961000, -0.183100
  0.963000, -0.184100
  0.965000, -0.185200
  0.967000, -0.186400
  0.969000, -0.187700
  0.971000, -0.189100
  0.973000, -0.190600
  0.975000, -0.192200
  0.977000, -0.193800
  0.979000, -0.195600
  0.981000, -0.197400
  0.983000, -0.199400
  0.985000, -0.201500
  0.987000, -0.203500
  0.989000, -0.205600
  0.991000, -0.207700
  0.993000, -0.210000
  0.995000, -0.212300
  0.997000, -0.214700
  0.999000, -0.217100
  1.001000, -0.219500
  1.003000, -0.222000
  1.005000, -0.224700
  1.007000, -0.227500
  1.009000, -0.230300
  1.011000, -0.233100
  1.013000, -0.235800
  1.015000, -0.238500
  1.017000, -0.241200
  1.019000, -0.243900
  1.021000, -0.246600
  1.023000, -0.249300
  1.025000, -0.252000
  1.027000, -0.254600
  1.029000, -0.257200
  1.031000, -0.259600
  1.033000, -0.262000
  1.035000, -0.264600
  1.037000, -0.267100
  1.039000, -0.269500
  1.041000, -0.271600
  1.043000, -0.273400
  1.045000, -0.275200
  1.047000, -0.277000
  1.049000, -0.278800
  1.051000, -0.280200
  1.053000, -0.281300
  1.055000, -0.282300
  1.057000, -0.283200
  1.059000, -0.284100
  1.061000, -0.284700
  1.063000, -0.284900
  1.065000, -0.285000
  1.067000, -0.285000
  1.069000, -0.284800
  1.071000, -0.284500
  1.073000, -0.283700
  1.075000, -0.282600
  1.077000, -0.281500
  1.079000, -0.280200
  1.081000, -0.278600
  1.083000, -0.276800
  1.085000, -0.274800
  1.087000, -0.272500
  1.089000, -0.270100
  1.091000, -0.267600
  1.093000, -0.264800
  1.095000, -0.261900
  1.097000, -0.258800
  1.099000, -0.255500
  1.101000, -0.251800
  1.103000, -0.247800
  1.105000, -0.243800
  1.107000, -0.239800
  1.109000, -0.235500
  1.111000, -0.231000
  1.113000, -0.226500
  1.115000, -0.222000
  1.117000, -0.217500
  1.119000, -0.212800
  1.121000, -0.207800
  1.123000, -0.202900
  1.125000, -0.198000
  1.127000, -0.193100
  1.129000, -0.188200
  1.131000, -0.183200
  1.133000, -0.178100
  1.135000, -0.173100
  1.137000, -0.168200
  1.139000, -0.163300
  1.141000, -0.158600
  1.143000, -0.153900
  1.145000, -0.149100
  1.147000, -0.144400
  1.149000, -0.139900
  1.151000, -0.135500
  1.153000, -0.131100
  1.155000, -0.126900
  1.157000, -0.122600
  1.159000, -0.118300
  1.161000, -0.114200
  1.163000, -0.110400
  1.165000, -0.106700
  1.167000, -0.102700
  1.169000, -0.098900
  1.171000, -0.095300
  1.173000, -0.091800
  1.175000, -0.088400
  1.177000, -0.085100
  1.179000, -0.081800
  1.181000, -0.078600
  1.183000, -0.075400
  1.185000, -0.072200
  1.187000, -0.069100
  1.189000, -0.066100
  1.191000, -0.063200
  1.193000, -0.060500
  1.195000, -0.057800
  1.197000, -0.055200
  1.199000, -0.052800
  1.201000, -0.050100
  1.203000, -0.047400
  1.205000, -0.044700
  1.207000, -0.042200
  1.209000, -0.039700
  1.211000, -0.037400
  1.213000, -0.035000
  1.215000, -0.032600
  1.217000, -0.030300
  1.219000, -0.028200
  1.221000, -0.026100
  1.223000, -0.024000
  1.225000, -0.022000
  1.227000, -0.020100
  1.229000, -0.018100
  1.231000, -0.016300
  1.233000, -0.014600
  1.235000, -0.013000
  1.237000, -0.011500
  1.239000, -0.010100
  1.241000, -0.008900
  1.243000, -0.007800
  1.245000, -0.006800
  1.247000, -0.005900
  1.249000, -0.005100
  1.251000, -0.004400
  1.253000, -0.003800
  1.255000, -0.003400
  1.257000, -0.003000
  1.259000, -0.002800
  1.261000, -0.002700
  1.263000, -0.002700
  1.265000, -0.002800
  1.267000, -0.003000
  1.269000, -0.003400
  1.271000, -0.003900
  1.273000, -0.004500
  1.275000, -0.005100
  1.277000, -0.005700
  1.279000, -0.006400
  1.281000, -0.007100
  1.283000, -0.008000
  1.285000, -0.009000
  1.287000, -0.009900
  1.289000, -0.010800
  1.291000, -0.011800
  1.293000, -0.012800
  1.295000, -0.013900
  1.297000, -0.014700
  1.299000, -0.015400
  1.301000, -0.016300
  1.303000, -0.017100
  1.305000, -0.017900
  1.307000, -0.018600
  1.309000, -0.019100
  1.311000, -0.019500
  1.313000, -0.019800
  1.315000, -0.020000
  1.317000, -0.019900
  1.319000, -0.019700
  1.321000, -0.019400
  1.323000, -0.019000
  1.325000, -0.018400
  1.327000, -0.017500
  1.329000, -0.016700
  1.331000, -0.015600
  1.333000, -0.014000
  1.335000, -0.012200
  1.337000, -0.010300
  1.339000, -0.008400
  1.341000, -0.006100
  1.343000, -0.003600
  1.345000, -0.001000
  1.347000,  0.001600
  1.349000,  0.004400
  1.351000,  0.007400
  1.353000,  0.010600
  1.355000,  0.013800
  1.357000,  0.017100
  1.359000,  0.020500
  1.361000,  0.023900
  1.363000,  0.027500
  1.365000,  0.031300
  1.367000,  0.035100
  1.369000,  0.038900
  1.371000,  0.042600
  1.373000,  0.046000
  1.375000,  0.049300
  1.377000,  0.052600
  1.379000,  0.056000
  1.381000,  0.059400
  1.383000,  0.062400
  1.385000,  0.065300
  1.387000,  0.068200
  1.389000,  0.070800
  1.391000,  0.073000
  1.393000,  0.074800
  1.395000,  0.076400
  1.397000,  0.077400
  1.399000,  0.077800
