# z (nm)   (kJ/mol)
  0.243000, 10.634700
  0.245000, 10.135400
  0.247000,  9.658300
  0.249000,  9.177800
  0.251000,  8.676300
  0.253000,  8.150500
  0.255000,  7.629300
  0.257000,  7.094400
  0.259000,  6.547100
  0.261000,  5.983400
  0.263000,  5.410800
  0.265000,  4.840200
  0.267000,  4.261300
  0.269000,  3.683900
  0.271000,  3.098200
  0.273000,  2.507200
  0.275000,  1.924900
  0.277000,  1.342400
  0.279000,  0.763400
  0.281000,  0.179200
  0.283000, -0.405800
  0.285000, -0.985500
  0.287000, -1.560100
  0.289000, -2.129100
  0.291000, -2.697800
  0.293000, -3.261600
  0.295000, -3.816700
  0.297000, -4.359100
  0.299000, -4.890500
  0.301000, -5.417100
  0.303000, -5.935500
  0.305000, -6.442900
  0.307000, -6.938100
  0.309000, -7.424800
  0.311000, -7.902400
  0.313000, -8.364700
  0.315000, -8.814700
  0.317000, -9.255200
  0.319000, -9.684600
  0.321000,-10.101200
  0.323000,-10.503000
  0.325000,-10.891400
  0.327000,-11.266700
  0.329000,-11.627800
  0.331000,-11.973400
  0.333000,-12.304200
  0.335000,-12.620600
  0.337000,-12.920600
  0.339000,-13.205400
  0.341000,-13.474700
  0.343000,-13.727800
  0.345000,-13.964700
  0.347000,-14.185100
  0.349000,-14.389100
  0.351000,-14.577500
  0.353000,-14.749600
  0.355000,-14.905700
  0.357000,-15.045300
  0.359000,-15.168600
  0.361000,-15.276700
  0.363000,-15.368700
  0.365000,-15.445300
  0.367000,-15.507600
  0.369000,-15.555700
  0.371000,-15.590200
  0.373000,-15.609300
  0.375000,-15.612700
  0.377000,-15.603700
  0.379000,-15.583400
  0.381000,-15.550900
  0.383000,-15.507000
  0.385000,-15.451800
  0.387000,-15.386300
  0.389000,-15.310600
  0.391000,-15.224800
  0.393000,-15.130400
  0.395000,-15.027400
  0.397000,-14.915500
  0.399000,-14.796300
  0.401000,-14.670000
  0.403000,-14.536500
  0.405000,-14.397100
  0.407000,-14.253300
  0.409000,-14.105800
  0.411000,-13.953500
  0.413000,-13.796800
  0.415000,-13.637000
  0.417000,-13.473900
  0.419000,-13.307600
  0.421000,-13.139100
  0.423000,-12.968900
  0.425000,-12.797100
  0.427000,-12.624100
  0.429000,-12.450200
  0.431000,-12.275700
  0.433000,-12.100800
  0.435000,-11.925900
  0.437000,-11.751200
  0.439000,-11.576900
  0.441000,-11.403100
  0.443000,-11.229900
  0.445000,-11.057800
  0.447000,-10.887200
  0.449000,-10.717900
  0.451000,-10.550400
  0.453000,-10.385000
  0.455000,-10.221500
  0.457000,-10.059600
  0.459000, -9.899200
  0.461000, -9.740600
  0.463000, -9.584400
  0.465000, -9.430200
  0.467000, -9.278200
  0.469000, -9.128600
  0.471000, -8.981000
  0.473000, -8.835500
  0.475000, -8.691900
  0.477000, -8.550600
  0.479000, -8.411700
  0.481000, -8.275000
  0.483000, -8.140100
  0.485000, -8.006900
  0.487000, -7.874900
  0.489000, -7.744300
  0.491000, -7.615900
  0.493000, -7.489100
  0.495000, -7.363300
  0.497000, -7.238500
  0.499000, -7.115200
  0.501000, -6.993000
  0.503000, -6.871300
  0.505000, -6.750400
  0.507000, -6.629900
  0.509000, -6.509900
  0.511000, -6.390100
  0.513000, -6.270000
  0.515000, -6.149800
  0.517000, -6.029500
  0.519000, -5.908900
  0.521000, -5.787800
  0.523000, -5.665900
  0.525000, -5.543200
  0.527000, -5.419700
  0.529000, -5.295100
  0.531000, -5.169700
  0.533000, -5.043200
  0.535000, -4.915400
  0.537000, -4.786200
  0.539000, -4.655700
  0.541000, -4.524000
  0.543000, -4.390500
  0.545000, -4.255700
  0.547000, -4.119800
  0.549000, -3.982400
  0.551000, -3.843800
  0.553000, -3.704200
  0.555000, -3.563800
  0.557000, -3.422600
  0.559000, -3.280400
  0.561000, -3.137600
  0.563000, -2.994000
  0.565000, -2.849600
  0.567000, -2.705300
  0.569000, -2.560800
  0.571000, -2.416300
  0.573000, -2.272200
  0.575000, -2.128800
  0.577000, -1.986000
  0.579000, -1.844100
  0.581000, -1.703200
  0.583000, -1.563400
  0.585000, -1.425200
  0.587000, -1.289800
  0.589000, -1.156200
  0.591000, -1.024500
  0.593000, -0.895700
  0.595000, -0.770500
  0.597000, -0.649600
  0.599000, -0.531700
  0.601000, -0.417400
  0.603000, -0.307400
  0.605000, -0.201300
  0.607000, -0.099800
  0.609000, -0.002900
  0.611000,  0.089400
  0.613000,  0.176800
  0.615000,  0.259400
  0.617000,  0.336500
  0.619000,  0.407900
  0.621000,  0.473400
  0.623000,  0.533200
  0.625000,  0.587500
  0.627000,  0.636300
  0.629000,  0.679500
  0.631000,  0.716800
  0.633000,  0.748500
  0.635000,  0.774500
  0.637000,  0.794800
  0.639000,  0.809700
  0.641000,  0.819500
  0.643000,  0.823800
  0.645000,  0.822600
  0.647000,  0.815900
  0.649000,  0.804500
  0.651000,  0.788800
  0.653000,  0.768300
  0.655000,  0.742900
  0.657000,  0.713700
  0.659000,  0.682300
  0.661000,  0.647100
  0.663000,  0.608700
  0.665000,  0.567500
  0.667000,  0.523300
  0.669000,  0.477800
  0.671000,  0.429200
  0.673000,  0.378100
  0.675000,  0.326500
  0.677000,  0.273200
  0.679000,  0.218300
  0.681000,  0.162300
  0.683000,  0.105300
  0.685000,  0.047800
  0.687000, -0.010400
  0.689000, -0.068900
  0.691000, -0.126100
  0.693000, -0.182900
  0.695000, -0.239900
  0.697000, -0.296200
  0.699000, -0.351600
  0.701000, -0.406100
  0.703000, -0.459400
  0.705000, -0.511200
  0.707000, -0.561100
  0.709000, -0.609400
  0.711000, -0.656400
  0.713000, -0.701900
  0.715000, -0.745500
  0.717000, -0.787600
  0.719000, -0.828000
  0.721000, -0.866400
  0.723000, -0.902800
  0.725000, -0.937500
  0.727000, -0.970300
  0.729000, -1.001000
  0.731000, -1.029700
  0.733000, -1.056600
  0.735000, -1.081400
  0.737000, -1.104300
  0.739000, -1.125200
  0.741000, -1.144200
  0.743000, -1.161400
  0.745000, -1.176700
  0.747000, -1.190300
  0.749000, -1.202200
  0.751000, -1.212300
  0.753000, -1.220800
  0.755000, -1.227600
  0.757000, -1.232900
  0.759000, -1.236700
  0.761000, -1.239200
  0.763000, -1.240100
  0.765000, -1.239600
  0.767000, -1.238100
  0.769000, -1.235200
  0.771000, -1.231300
  0.773000, -1.226200
  0.775000, -1.219900
  0.777000, -1.212600
  0.779000, -1.204400
  0.781000, -1.195300
  0.783000, -1.185400
  0.785000, -1.174500
  0.787000, -1.162700
  0.789000, -1.150200
  0.791000, -1.136900
  0.793000, -1.122500
  0.795000, -1.107500
  0.797000, -1.091900
  0.799000, -1.075600
  0.801000, -1.058800
  0.803000, -1.041400
  0.805000, -1.023100
  0.807000, -1.004300
  0.809000, -0.985000
  0.811000, -0.965100
  0.813000, -0.944600
  0.815000, -0.923600
  0.817000, -0.902300
  0.819000, -0.880400
  0.821000, -0.858100
  0.823000, -0.835800
  0.825000, -0.813000
  0.827000, -0.789800
  0.829000, -0.765900
  0.831000, -0.741700
  0.833000, -0.717400
  0.835000, -0.692600
  0.837000, -0.667500
  0.839000, -0.642300
  0.841000, -0.616900
  0.843000, -0.591400
  0.845000, -0.565400
  0.847000, -0.539100
  0.849000, -0.512900
  0.851000, -0.486800
  0.853000, -0.460700
  0.855000, -0.434700
  0.857000, -0.408800
  0.859000, -0.382800
  0.861000, -0.356800
  0.863000, -0.330800
  0.865000, -0.305000
  0.867000, -0.279500
  0.869000, -0.254200
  0.871000, -0.229200
  0.873000, -0.204600
  0.875000, -0.180300
  0.877000, -0.156300
  0.879000, -0.132600
  0.881000, -0.109200
  0.883000, -0.086200
  0.885000, -0.063900
  0.887000, -0.042000
  0.889000, -0.020600
  0.891000,  0.000100
  0.893000,  0.020100
  0.895000,  0.039600
  0.897000,  0.058100
  0.899000,  0.076000
  0.901000,  0.093300
  0.903000,  0.109700
  0.905000,  0.125300
  0.907000,  0.140400
  0.909000,  0.154800
  0.911000,  0.168200
  0.913000,  0.180600
  0.915000,  0.192300
  0.917000,  0.203000
  0.919000,  0.212800
  0.921000,  0.221800
  0.923000,  0.230000
  0.925000,  0.237200
  0.927000,  0.243500
  0.929000,  0.249100
  0.931000,  0.253400
  0.933000,  0.257000
  0.935000,  0.260000
  0.937000,  0.262300
  0.939000,  0.263500
  0.941000,  0.263800
  0.943000,  0.263300
  0.945000,  0.262000
  0.947000,  0.259900
  0.949000,  0.257100
  0.951000,  0.253400
  0.953000,  0.248900
  0.955000,  0.243800
  0.957000,  0.238000
  0.959000,  0.231500
  0.961000,  0.224400
  0.963000,  0.216600
  0.965000,  0.208300
  0.967000,  0.199200
  0.969000,  0.189600
  0.971000,  0.179500
  0.973000,  0.169100
  0.975000,  0.158300
  0.977000,  0.146900
  0.979000,  0.135100
  0.981000,  0.123100
  0.983000,  0.110600
  0.985000,  0.098000
  0.987000,  0.085200
  0.989000,  0.071900
  0.991000,  0.058700
  0.993000,  0.045400
  0.995000,  0.032100
  0.997000,  0.018800
  0.999000,  0.005400
  1.001000, -0.008000
  1.003000, -0.021300
  1.005000, -0.034400
  1.007000, -0.047500
  1.009000, -0.060500
  1.011000, -0.073200
  1.013000, -0.085800
  1.015000, -0.098100
  1.017000, -0.110200
  1.019000, -0.122100
  1.021000, -0.133500
  1.023000, -0.144400
  1.025000, -0.155200
  1.027000, -0.165700
  1.029000, -0.175800
  1.031000, -0.185500
  1.033000, -0.194700
  1.035000, -0.203500
  1.037000, -0.211800
  1.039000, -0.219700
  1.041000, -0.227100
  1.043000, -0.234000
  1.045000, -0.240500
  1.047000, -0.246500
  1.049000, -0.252000
  1.051000, -0.257000
  1.053000, -0.261600
  1.055000, -0.265700
  1.057000, -0.269400
  1.059000, -0.272600
  1.061000, -0.275400
  1.063000, -0.277900
  1.065000, -0.279800
  1.067000, -0.281200
  1.069000, -0.282300
  1.071000, -0.283100
  1.073000, -0.283600
  1.075000, -0.283700
  1.077000, -0.283400
  1.079000, -0.282800
  1.081000, -0.281900
  1.083000, -0.280800
  1.085000, -0.279300
  1.087000, -0.277500
  1.089000, -0.275600
  1.091000, -0.273500
  1.093000, -0.271000
  1.095000, -0.268400
  1.097000, -0.265600
  1.099000, -0.262700
  1.101000, -0.259500
  1.103000, -0.256300
  1.105000, -0.252900
  1.107000, -0.249300
  1.109000, -0.245600
  1.111000, -0.241700
  1.113000, -0.237800
  1.115000, -0.233800
  1.117000, -0.229700
  1.119000, -0.225500
  1.121000, -0.221200
  1.123000, -0.216700
  1.125000, -0.212300
  1.127000, -0.207900
  1.129000, -0.203300
  1.131000, -0.198600
  1.133000, -0.193800
  1.135000, -0.189000
  1.137000, -0.184200
  1.139000, -0.179400
  1.141000, -0.174400
  1.143000, -0.169500
  1.145000, -0.164500
  1.147000, -0.159500
  1.149000, -0.154300
  1.151000, -0.149100
  1.153000, -0.143900
  1.155000, -0.138700
  1.157000, -0.133400
  1.159000, -0.128000
  1.161000, -0.122700
  1.163000, -0.117300
  1.165000, -0.111800
  1.167000, -0.106400
  1.169000, -0.101000
  1.171000, -0.095500
  1.173000, -0.090100
  1.175000, -0.084700
  1.177000, -0.079400
  1.179000, -0.074000
  1.181000, -0.068600
  1.183000, -0.063300
  1.185000, -0.058100
  1.187000, -0.052800
  1.189000, -0.047600
  1.191000, -0.042400
  1.193000, -0.037200
  1.195000, -0.032200
  1.197000, -0.027300
  1.199000, -0.022700
  1.201000, -0.018100
  1.203000, -0.013500
  1.205000, -0.009000
  1.207000, -0.004800
  1.209000, -0.000700
  1.211000,  0.003200
  1.213000,  0.006900
  1.215000,  0.010600
  1.217000,  0.014200
  1.219000,  0.017600
  1.221000,  0.020900
  1.223000,  0.023900
  1.225000,  0.026700
  1.227000,  0.029400
  1.229000,  0.031800
  1.231000,  0.034000
  1.233000,  0.036000
  1.235000,  0.037800
  1.237000,  0.039500
  1.239000,  0.040800
  1.241000,  0.041900
  1.243000,  0.042900
  1.245000,  0.043800
  1.247000,  0.044500
  1.249000,  0.045000
  1.251000,  0.045300
  1.253000,  0.045200
  1.255000,  0.044900
  1.257000,  0.044300
  1.259000,  0.043600
  1.261000,  0.042900
  1.263000,  0.042100
  1.265000,  0.041100
  1.267000,  0.039800
  1.269000,  0.038500
  1.271000,  0.037000
  1.273000,  0.035300
  1.275000,  0.033600
  1.277000,  0.031900
  1.279000,  0.030000
  1.281000,  0.027700
  1.283000,  0.025200
  1.285000,  0.022800
  1.287000,  0.020200
  1.289000,  0.017500
  1.291000,  0.014800
  1.293000,  0.012000
  1.295000,  0.009100
  1.297000,  0.006200
  1.299000,  0.003300
  1.301000,  0.000500
  1.303000, -0.002400
  1.305000, -0.005200
  1.307000, -0.008000
  1.309000, -0.010700
  1.311000, -0.013400
  1.313000, -0.016100
  1.315000, -0.018700
  1.317000, -0.021200
  1.319000, -0.023600
  1.321000, -0.025900
  1.323000, -0.028100
  1.325000, -0.030200
  1.327000, -0.032100
  1.329000, -0.034000
  1.331000, -0.035600
  1.333000, -0.037200
  1.335000, -0.038500
  1.337000, -0.039700
  1.339000, -0.040700
  1.341000, -0.041500
  1.343000, -0.042000
  1.345000, -0.042400
  1.347000, -0.042500
  1.349000, -0.042500
  1.351000, -0.042300
  1.353000, -0.041900
  1.355000, -0.041200
  1.357000, -0.040300
  1.359000, -0.039200
  1.361000, -0.038000
  1.363000, -0.036500
  1.365000, -0.035000
  1.367000, -0.033300
  1.369000, -0.031400
  1.371000, -0.029500
  1.373000, -0.027400
  1.375000, -0.025300
  1.377000, -0.023300
  1.379000, -0.021100
  1.381000, -0.018900
  1.383000, -0.017000
  1.385000, -0.015100
  1.387000, -0.013200
  1.389000, -0.011400
  1.391000, -0.009800
  1.393000, -0.008600
  1.395000, -0.007600
  1.397000, -0.006900
  1.399000, -0.006500
