# z (nm)   (kJ/mol)
  0.2430    8.23350
  0.2450    7.70460
  0.2470    7.19930
  0.2490    6.70550
  0.2510    6.16560
  0.2530    5.58280
  0.2550    5.02440
  0.2570    4.48580
  0.2590    3.91660
  0.2610    3.33160
  0.2630    2.76560
  0.2650    2.19600
  0.2670    1.61230
  0.2690    1.01060
  0.2710    0.39680
  0.2730   -0.19960
  0.2750   -0.79740
  0.2770   -1.40840
  0.2790   -2.01910
  0.2810   -2.62330
  0.2830   -3.22350
  0.2850   -3.82310
  0.2870   -4.41540
  0.2890   -5.00670
  0.2910   -5.59750
  0.2930   -6.17740
  0.2950   -6.75070
  0.2970   -7.32300
  0.2990   -7.88870
  0.3010   -8.44360
  0.3030   -8.98880
  0.3050   -9.53200
  0.3070  -10.07140
  0.3090  -10.59640
  0.3110  -11.11140
  0.3130  -11.61660
  0.3150  -12.11190
  0.3170  -12.59870
  0.3190  -13.07360
  0.3210  -13.53730
  0.3230  -13.98960
  0.3250  -14.42930
  0.3270  -14.85650
  0.3290  -15.27090
  0.3310  -15.67150
  0.3330  -16.05790
  0.3350  -16.43060
  0.3370  -16.78950
  0.3390  -17.13400
  0.3410  -17.46360
  0.3430  -17.77810
  0.3450  -18.07750
  0.3470  -18.36160
  0.3490  -18.62940
  0.3510  -18.88080
  0.3530  -19.11560
  0.3550  -19.33360
  0.3570  -19.53780
  0.3590  -19.72680
  0.3610  -19.89720
  0.3630  -20.05050
  0.3650  -20.18740
  0.3670  -20.30640
  0.3690  -20.40770
  0.3710  -20.49140
  0.3730  -20.56130
  0.3750  -20.61680
  0.3770  -20.65390
  0.3790  -20.67870
  0.3810  -20.69180
  0.3830  -20.68790
  0.3850  -20.67050
  0.3870  -20.63990
  0.3890  -20.59720
  0.3910  -20.54310
  0.3930  -20.47730
  0.3950  -20.40150
  0.3970  -20.31370
  0.3990  -20.21380
  0.4010  -20.10310
  0.4030  -19.98370
  0.4050  -19.85680
  0.4070  -19.72140
  0.4090  -19.57710
  0.4110  -19.42490
  0.4130  -19.26620
  0.4150  -19.10090
  0.4170  -18.93020
  0.4190  -18.75370
  0.4210  -18.57170
  0.4230  -18.38490
  0.4250  -18.19380
  0.4270  -17.99890
  0.4290  -17.80050
  0.4310  -17.59900
  0.4330  -17.39480
  0.4350  -17.18830
  0.4370  -16.97970
  0.4390  -16.77050
  0.4410  -16.56090
  0.4430  -16.35040
  0.4450  -16.13900
  0.4470  -15.92830
  0.4490  -15.71860
  0.4510  -15.50950
  0.4530  -15.30160
  0.4550  -15.09550
  0.4570  -14.89200
  0.4590  -14.69070
  0.4610  -14.49220
  0.4630  -14.29650
  0.4650  -14.10310
  0.4670  -13.91280
  0.4690  -13.72610
  0.4710  -13.54360
  0.4730  -13.36500
  0.4750  -13.19030
  0.4770  -13.01990
  0.4790  -12.85420
  0.4810  -12.69370
  0.4830  -12.53770
  0.4850  -12.38600
  0.4870  -12.23890
  0.4890  -12.09560
  0.4910  -11.95670
  0.4930  -11.82240
  0.4950  -11.69260
  0.4970  -11.56720
  0.4990  -11.44600
  0.5010  -11.32850
  0.5030  -11.21420
  0.5050  -11.10440
  0.5070  -10.99830
  0.5090  -10.89480
  0.5110  -10.79380
  0.5130  -10.69570
  0.5150  -10.59970
  0.5170  -10.50490
  0.5190  -10.41160
  0.5210  -10.31970
  0.5230  -10.22890
  0.5250  -10.13870
  0.5270  -10.04870
  0.5290   -9.95910
  0.5310   -9.86890
  0.5330   -9.77760
  0.5350   -9.68550
  0.5370   -9.59230
  0.5390   -9.49700
  0.5410   -9.39960
  0.5430   -9.30000
  0.5450   -9.19760
  0.5470   -9.09210
  0.5490   -8.98350
  0.5510   -8.87150
  0.5530   -8.75590
  0.5550   -8.63670
  0.5570   -8.51420
  0.5590   -8.38810
  0.5610   -8.25750
  0.5630   -8.12240
  0.5650   -7.98320
  0.5670   -7.84020
  0.5690   -7.69340
  0.5710   -7.54260
  0.5730   -7.38780
  0.5750   -7.22940
  0.5770   -7.06760
  0.5790   -6.90190
  0.5810   -6.73200
  0.5830   -6.55830
  0.5850   -6.38140
  0.5870   -6.20340
  0.5890   -6.02450
  0.5910   -5.84390
  0.5930   -5.66160
  0.5950   -5.47790
  0.5970   -5.29290
  0.5990   -5.10660
  0.6010   -4.92050
  0.6030   -4.73610
  0.6050   -4.55360
  0.6070   -4.37180
  0.6090   -4.19170
  0.6110   -4.01370
  0.6130   -3.83840
  0.6150   -3.66660
  0.6170   -3.49800
  0.6190   -3.33310
  0.6210   -3.17200
  0.6230   -3.01570
  0.6250   -2.86580
  0.6270   -2.72100
  0.6290   -2.58110
  0.6310   -2.44740
  0.6330   -2.31960
  0.6350   -2.19840
  0.6370   -2.08440
  0.6390   -1.97690
  0.6410   -1.87620
  0.6430   -1.78240
  0.6450   -1.69550
  0.6470   -1.61660
  0.6490   -1.54500
  0.6510   -1.47930
  0.6530   -1.42050
  0.6550   -1.36890
  0.6570   -1.32370
  0.6590   -1.28510
  0.6610   -1.25270
  0.6630   -1.22660
  0.6650   -1.20640
  0.6670   -1.19110
  0.6690   -1.18130
  0.6710   -1.17730
  0.6730   -1.17790
  0.6750   -1.18310
  0.6770   -1.19330
  0.6790   -1.20760
  0.6810   -1.22480
  0.6830   -1.24600
  0.6850   -1.27040
  0.6870   -1.29680
  0.6890   -1.32550
  0.6910   -1.35550
  0.6930   -1.38720
  0.6950   -1.42130
  0.6970   -1.45690
  0.6990   -1.49250
  0.7010   -1.52850
  0.7030   -1.56660
  0.7050   -1.60500
  0.7070   -1.64190
  0.7090   -1.67810
  0.7110   -1.71400
  0.7130   -1.74960
  0.7150   -1.78410
  0.7170   -1.81710
  0.7190   -1.84910
  0.7210   -1.87970
  0.7230   -1.90850
  0.7250   -1.93590
  0.7270   -1.96190
  0.7290   -1.98620
  0.7310   -2.00870
  0.7330   -2.02950
  0.7350   -2.04810
  0.7370   -2.06430
  0.7390   -2.07870
  0.7410   -2.09100
  0.7430   -2.10160
  0.7450   -2.11050
  0.7470   -2.11720
  0.7490   -2.12200
  0.7510   -2.12490
  0.7530   -2.12600
  0.7550   -2.12550
  0.7570   -2.12330
  0.7590   -2.11930
  0.7610   -2.11350
  0.7630   -2.10610
  0.7650   -2.09710
  0.7670   -2.08660
  0.7690   -2.07520
  0.7710   -2.06260
  0.7730   -2.04840
  0.7750   -2.03320
  0.7770   -2.01720
  0.7790   -2.00000
  0.7810   -1.98180
  0.7830   -1.96280
  0.7850   -1.94240
  0.7870   -1.92130
  0.7890   -1.90010
  0.7910   -1.87820
  0.7930   -1.85570
  0.7950   -1.83320
  0.7970   -1.80980
  0.7990   -1.78570
  0.8010   -1.76140
  0.8030   -1.73710
  0.8050   -1.71250
  0.8070   -1.68760
  0.8090   -1.66250
  0.8110   -1.63760
  0.8130   -1.61250
  0.8150   -1.58670
  0.8170   -1.56060
  0.8190   -1.53460
  0.8210   -1.50850
  0.8230   -1.48230
  0.8250   -1.45640
  0.8270   -1.43050
  0.8290   -1.40430
  0.8310   -1.37820
  0.8330   -1.35200
  0.8350   -1.32560
  0.8370   -1.29940
  0.8390   -1.27330
  0.8410   -1.24680
  0.8430   -1.22020
  0.8450   -1.19380
  0.8470   -1.16750
  0.8490   -1.14070
  0.8510   -1.11400
  0.8530   -1.08730
  0.8550   -1.06050
  0.8570   -1.03380
  0.8590   -1.00710
  0.8610   -0.98020
  0.8630   -0.95300
  0.8650   -0.92580
  0.8670   -0.89880
  0.8690   -0.87170
  0.8710   -0.84460
  0.8730   -0.81750
  0.8750   -0.79060
  0.8770   -0.76370
  0.8790   -0.73690
  0.8810   -0.71020
  0.8830   -0.68360
  0.8850   -0.65700
  0.8870   -0.63060
  0.8890   -0.60480
  0.8910   -0.57900
  0.8930   -0.55350
  0.8950   -0.52840
  0.8970   -0.50340
  0.8990   -0.47890
  0.9010   -0.45490
  0.9030   -0.43120
  0.9050   -0.40800
  0.9070   -0.38530
  0.9090   -0.36340
  0.9110   -0.34190
  0.9130   -0.32080
  0.9150   -0.30050
  0.9170   -0.28110
  0.9190   -0.26250
  0.9210   -0.24450
  0.9230   -0.22720
  0.9250   -0.21080
  0.9270   -0.19510
  0.9290   -0.18010
  0.9310   -0.16590
  0.9330   -0.15250
  0.9350   -0.14000
  0.9370   -0.12850
  0.9390   -0.11790
  0.9410   -0.10830
  0.9430   -0.09950
  0.9450   -0.09150
  0.9470   -0.08440
  0.9490   -0.07820
  0.9510   -0.07310
  0.9530   -0.06880
  0.9550   -0.06530
  0.9570   -0.06270
  0.9590   -0.06090
  0.9610   -0.05980
  0.9630   -0.05950
  0.9650   -0.06010
  0.9670   -0.06140
  0.9690   -0.06340
  0.9710   -0.06610
  0.9730   -0.06950
  0.9750   -0.07350
  0.9770   -0.07830
  0.9790   -0.08360
  0.9810   -0.08940
  0.9830   -0.09550
  0.9850   -0.10190
  0.9870   -0.10880
  0.9890   -0.11610
  0.9910   -0.12380
  0.9930   -0.13180
  0.9950   -0.14000
  0.9970   -0.14850
  0.9990   -0.15720
  1.0010   -0.16580
  1.0030   -0.17470
  1.0050   -0.18390
  1.0070   -0.19320
  1.0090   -0.20220
  1.0110   -0.21130
  1.0130   -0.22040
  1.0150   -0.22960
  1.0170   -0.23870
  1.0190   -0.24760
  1.0210   -0.25630
  1.0230   -0.26490
  1.0250   -0.27360
  1.0270   -0.28200
  1.0290   -0.29020
  1.0310   -0.29820
  1.0330   -0.30590
  1.0350   -0.31320
  1.0370   -0.32030
  1.0390   -0.32720
  1.0410   -0.33400
  1.0430   -0.34050
  1.0450   -0.34670
  1.0470   -0.35260
  1.0490   -0.35820
  1.0510   -0.36350
  1.0530   -0.36860
  1.0550   -0.37330
  1.0570   -0.37780
  1.0590   -0.38200
  1.0610   -0.38590
  1.0630   -0.38970
  1.0650   -0.39310
  1.0670   -0.39610
  1.0690   -0.39880
  1.0710   -0.40120
  1.0730   -0.40330
  1.0750   -0.40530
  1.0770   -0.40700
  1.0790   -0.40840
  1.0810   -0.40960
  1.0830   -0.41050
  1.0850   -0.41120
  1.0870   -0.41170
  1.0890   -0.41180
  1.0910   -0.41180
  1.0930   -0.41170
  1.0950   -0.41130
  1.0970   -0.41060
  1.0990   -0.40960
  1.1010   -0.40840
  1.1030   -0.40710
  1.1050   -0.40570
  1.1070   -0.40420
  1.1090   -0.40250
  1.1110   -0.40050
  1.1130   -0.39830
  1.1150   -0.39580
  1.1170   -0.39320
  1.1190   -0.39030
  1.1210   -0.38720
  1.1230   -0.38400
  1.1250   -0.38060
  1.1270   -0.37700
  1.1290   -0.37310
  1.1310   -0.36910
  1.1330   -0.36490
  1.1350   -0.36060
  1.1370   -0.35610
  1.1390   -0.35140
  1.1410   -0.34660
  1.1430   -0.34160
  1.1450   -0.33650
  1.1470   -0.33120
  1.1490   -0.32580
  1.1510   -0.32010
  1.1530   -0.31440
  1.1550   -0.30860
  1.1570   -0.30260
  1.1590   -0.29660
  1.1610   -0.29030
  1.1630   -0.28400
  1.1650   -0.27760
  1.1670   -0.27100
  1.1690   -0.26440
  1.1710   -0.25790
  1.1730   -0.25110
  1.1750   -0.24430
  1.1770   -0.23750
  1.1790   -0.23070
  1.1810   -0.22390
  1.1830   -0.21690
  1.1850   -0.20990
  1.1870   -0.20300
  1.1890   -0.19620
  1.1910   -0.18930
  1.1930   -0.18250
  1.1950   -0.17580
  1.1970   -0.16900
  1.1990   -0.16220
  1.2010   -0.15560
  1.2030   -0.14900
  1.2050   -0.14260
  1.2070   -0.13630
  1.2090   -0.13000
  1.2110   -0.12400
  1.2130   -0.11810
  1.2150   -0.11230
  1.2170   -0.10690
  1.2190   -0.10150
  1.2210   -0.09620
  1.2230   -0.09100
  1.2250   -0.08590
  1.2270   -0.08110
  1.2290   -0.07650
  1.2310   -0.07220
  1.2330   -0.06810
  1.2350   -0.06400
  1.2370   -0.06010
  1.2390   -0.05650
  1.2410   -0.05290
  1.2430   -0.04960
  1.2450   -0.04660
  1.2470   -0.04360
  1.2490   -0.04070
  1.2510   -0.03810
  1.2530   -0.03570
  1.2550   -0.03330
  1.2570   -0.03100
  1.2590   -0.02900
  1.2610   -0.02710
  1.2630   -0.02540
  1.2650   -0.02370
  1.2670   -0.02200
  1.2690   -0.02040
  1.2710   -0.01910
  1.2730   -0.01770
  1.2750   -0.01640
  1.2770   -0.01520
  1.2790   -0.01420
  1.2810   -0.01310
  1.2830   -0.01200
  1.2850   -0.01070
  1.2870   -0.00960
  1.2890   -0.00850
  1.2910   -0.00730
  1.2930   -0.00620
  1.2950   -0.00500
  1.2970   -0.00390
  1.2990   -0.00260
  1.3010   -0.00130
  1.3030    0.00020
  1.3050    0.00160
  1.3070    0.00300
  1.3090    0.00460
  1.3110    0.00620
  1.3130    0.00790
  1.3150    0.00970
  1.3170    0.01150
  1.3190    0.01330
  1.3210    0.01530
  1.3230    0.01730
  1.3250    0.01960
  1.3270    0.02180
  1.3290    0.02410
  1.3310    0.02650
  1.3330    0.02900
  1.3350    0.03170
  1.3370    0.03460
  1.3390    0.03740
  1.3410    0.04040
  1.3430    0.04320
  1.3450    0.04610
  1.3470    0.04910
  1.3490    0.05210
  1.3510    0.05530
  1.3530    0.05850
  1.3550    0.06180
  1.3570    0.06510
  1.3590    0.06860
  1.3610    0.07230
  1.3630    0.07580
  1.3650    0.07900
  1.3670    0.08220
  1.3690    0.08550
  1.3710    0.08890
  1.3730    0.09200
  1.3750    0.09490
  1.3770    0.09780
  1.3790    0.10060
  1.3810    0.10340
  1.3830    0.10590
  1.3850    0.10840
  1.3870    0.11080
  1.3890    0.11280
  1.3910    0.11450
  1.3930    0.11580
  1.3950    0.11670
  1.3970    0.11720
  1.3990    0.11740
